Wavelength (nm),BLANK,ELA_FISH109,ELA_FISH930,ELA_FISH903,ELA_FISH1010,ELA_FISH105,ELA_FISH913,ELA_FISH909,ELA_CTL2-L222-224,ELA_FISH948,ELA_FISH944,ELA_CTL1-L239,ELA_CTL2-L239
799.9822998,-0.003713367,-0.003706746,-0.003404757,-0.001828664,-0.002739191,-0.001866349,-0.001996957,-0.003346246,-0.003430184,-0.00254257,-0.00318788,-0.002815582,-0.002448112
799.0092773,-0.004215455,-0.004110643,-0.004020732,-0.002590228,-0.003405117,-0.002298123,-0.002757197,-0.003509792,-0.003768647,-0.002633147,-0.003411435,-0.003722607,-0.002817279
798.0358276,-0.004049866,-0.003603556,-0.003480261,-0.002392664,-0.003410613,-0.00221072,-0.002056629,-0.003179298,-0.003102816,-0.002175899,-0.00345114,-0.003764079,-0.002441265
797.0620117,-0.003638982,-0.00394563,-0.00372312,-0.002246157,-0.003106003,-0.002007573,-0.002485486,-0.003381693,-0.003457766,-0.002389729,-0.003377172,-0.003725533,-0.002650848
795.9486694,-0.004303787,-0.003837212,-0.003792975,-0.002610144,-0.003409124,-0.00220969,-0.002217777,-0.003306223,-0.003384929,-0.002590897,-0.003842857,-0.003819507,-0.002393899
794.9740601,-0.004298815,-0.00441706,-0.003743446,-0.002435448,-0.003405014,-0.002617915,-0.002561201,-0.003666499,-0.003781427,-0.002686249,-0.003545996,-0.00400719,-0.002923279
793.9990845,-0.003834184,-0.003253556,-0.003111298,-0.001817219,-0.002568612,-0.002200779,-0.001798968,-0.003191632,-0.003037838,-0.002101971,-0.003096699,-0.003110732,-0.002333501
793.0237427,-0.004230836,-0.003663009,-0.003506813,-0.002088215,-0.002977374,-0.002168017,-0.002797578,-0.002945185,-0.002927392,-0.001978919,-0.00320705,-0.002968478,-0.002659699
792.0480347,-0.003955224,-0.003872003,-0.003478669,-0.001776952,-0.002920244,-0.002297299,-0.002112945,-0.002851124,-0.003151235,-0.00227366,-0.003081843,-0.003423198,-0.002224164
790.9324341,-0.003977796,-0.003800673,-0.003776243,-0.002216489,-0.003325541,-0.002679715,-0.00277942,-0.003477591,-0.003709261,-0.002092027,-0.003734464,-0.003702331,-0.002769595
789.9558716,-0.004221607,-0.003983696,-0.004196997,-0.002518996,-0.003395203,-0.002510039,-0.002472874,-0.003618035,-0.003641549,-0.002854724,-0.00379513,-0.003634156,-0.002969198
788.9790039,-0.004017501,-0.003802931,-0.003708131,-0.00258153,-0.00329754,-0.00213108,-0.002872365,-0.00345792,-0.003564225,-0.002579214,-0.003628252,-0.00330314,-0.002728798
788.001709,-0.004075306,-0.003728356,-0.003585585,-0.002273866,-0.00296128,-0.002404557,-0.002559297,-0.003516519,-0.003255046,-0.002114439,-0.00334491,-0.003577678,-0.002419436
787.0241089,-0.004327931,-0.003623631,-0.003861997,-0.002482191,-0.00341051,-0.002450429,-0.002760386,-0.003278889,-0.0037552,-0.002221537,-0.003423609,-0.003682414,-0.002669835
786.0460815,-0.004670818,-0.004122951,-0.004098386,-0.002817742,-0.00375443,-0.002825715,-0.002883988,-0.004275798,-0.003698224,-0.003021128,-0.004117514,-0.003989646,-0.003085596
785.067688,-0.003826384,-0.004084538,-0.003674919,-0.002456555,-0.002904251,-0.002119746,-0.002476889,-0.00365423,-0.00327262,-0.002560738,-0.003426948,-0.003493923,-0.002547305
783.9490356,-0.004549721,-0.004095668,-0.00361439,-0.002674158,-0.003713624,-0.002674672,-0.002807455,-0.003554982,-0.0039425,-0.002998404,-0.003682157,-0.004271799,-0.003265323
782.9698486,-0.003953941,-0.00417141,-0.00389145,-0.002484405,-0.003495001,-0.002401931,-0.002701685,-0.003652381,-0.003845166,-0.003049251,-0.00398626,-0.003785533,-0.003000512
781.9903564,-0.004578001,-0.004256214,-0.003812374,-0.002537886,-0.004035659,-0.002790274,-0.002471535,-0.003722402,-0.004219762,-0.00297398,-0.004276413,-0.003811861,-0.003438761
781.010376,-0.004273747,-0.003901558,-0.00364119,-0.002692887,-0.00348247,-0.002525687,-0.002532224,-0.003630306,-0.003681079,-0.003407891,-0.003716242,-0.003729536,-0.002819697
780.0300903,-0.004032479,-0.00375443,-0.003681335,-0.002268046,-0.002645548,-0.002032669,-0.002689131,-0.003680514,-0.003570438,-0.002620951,-0.003670504,-0.003278066,-0.002450532
779.0494385,-0.004215558,-0.003740469,-0.003988467,-0.002563517,-0.003104153,-0.0018664,-0.002439103,-0.003668142,-0.003875954,-0.002465718,-0.003503321,-0.003330679,-0.001909442
778.0684204,-0.004248011,-0.00437893,-0.00381417,-0.002479463,-0.003848912,-0.002745364,-0.003034393,-0.003857071,-0.003896119,-0.003248623,-0.00442444,-0.004216532,-0.002538092
776.9468384,-0.003687804,-0.003407788,-0.003630665,-0.002331698,-0.002764193,-0.002062503,-0.002070799,-0.00325777,-0.003528228,-0.00208198,-0.003144451,-0.003353798,-0.001916504
775.9649658,-0.004166744,-0.004088436,-0.003779323,-0.002628567,-0.003280944,-0.002334633,-0.002566399,-0.004015295,-0.003385802,-0.002344984,-0.003956968,-0.003696992,-0.002292818
774.9827881,-0.004262161,-0.004041865,-0.00402581,-0.002669115,-0.003714907,-0.002524452,-0.002907079,-0.00395353,-0.003559398,-0.002961588,-0.00416259,-0.003729434,-0.002644056
774.0002441,-0.004244782,-0.003903662,-0.003700175,-0.002470712,-0.003470503,-0.002263823,-0.002548128,-0.003699918,-0.003418883,-0.00230492,-0.003953326,-0.003429105,-0.002841506
773.017334,-0.00410454,-0.003786508,-0.003841881,-0.002769955,-0.003423712,-0.00268486,-0.002438228,-0.003599294,-0.003809346,-0.002777774,-0.003546149,-0.004038736,-0.002816096
772.0340576,-0.003919156,-0.004186844,-0.003563917,-0.002192331,-0.003082923,-0.002265935,-0.002654142,-0.003539474,-0.003308689,-0.002599234,-0.003207152,-0.003241737,-0.002793772
771.0504761,-0.003586253,-0.003640163,-0.003897043,-0.002516062,-0.003021128,-0.002301212,-0.002383447,-0.003459512,-0.003434652,-0.002628413,-0.003552568,-0.003582556,-0.002351884
770.0664673,-0.004043045,-0.00384065,-0.003725943,-0.002342975,-0.003465059,-0.002413207,-0.002833328,-0.003840085,-0.003942552,-0.002732451,-0.003846551,-0.00386682,-0.002864445
768.9414063,-0.003925519,-0.003845833,-0.003887191,-0.002601756,-0.003129442,-0.002348691,-0.002595735,-0.003722504,-0.00342741,-0.002539945,-0.003891296,-0.003583121,-0.002718149
767.956665,-0.004022835,-0.004209354,-0.003596111,-0.00271393,-0.003602991,-0.002836156,-0.002629184,-0.003939217,-0.003407942,-0.00245743,-0.003758023,-0.003712597,-0.003017118
766.9714966,-0.004256368,-0.004138848,-0.004211353,-0.002721853,-0.003512205,-0.00271393,-0.002776076,-0.004037198,-0.003787894,-0.002752361,-0.003779836,-0.003472609,-0.002833636
765.9859619,-0.004261392,-0.00410813,-0.00372389,-0.002407801,-0.003417085,-0.002489192,-0.002597072,-0.003694888,-0.003613157,-0.003139928,-0.003854095,-0.003719681,-0.003136433
765.0001221,-0.004375957,-0.00424309,-0.00394604,-0.002712849,-0.003752685,-0.002569796,-0.00281836,-0.003683748,-0.003656745,-0.003012697,-0.003948247,-0.003735952,-0.002874937
764.013916,-0.00458589,-0.004531072,-0.004288614,-0.002775459,-0.003799646,-0.002793875,-0.002967964,-0.003969485,-0.003937319,-0.002985087,-0.004377188,-0.003776859,-0.003013365
763.0272827,-0.004223043,-0.003979797,-0.003760743,-0.002714084,-0.003428694,-0.002355746,-0.00258081,-0.00365464,-0.003621167,-0.002787085,-0.003754584,-0.00355909,-0.002687484
762.0403442,-0.00414613,-0.004316397,-0.004191049,-0.002823812,-0.003593903,-0.002882086,-0.002828853,-0.004043455,-0.003733283,-0.003319582,-0.004113976,-0.003975539,-0.003073772
761.0530396,-0.004406042,-0.004420033,-0.004388155,-0.002915668,-0.003803239,-0.002795778,-0.003348403,-0.004286256,-0.004052739,-0.003029663,-0.004318038,-0.004123207,-0.003233721
760.0653687,-0.00459465,-0.004462874,-0.003818327,-0.003141162,-0.003754738,-0.003009561,-0.003238397,-0.003860252,-0.004139669,-0.003331963,-0.004402147,-0.0036301,-0.00322406
758.9361572,-0.003926955,-0.004271748,-0.003797542,-0.00255451,-0.003592825,-0.002694173,-0.002946882,-0.003510665,-0.003865999,-0.002550496,-0.003663471,-0.003486784,-0.003160744
757.9476929,-0.003841112,-0.003863588,-0.004409527,-0.002839243,-0.003452373,-0.002632375,-0.002809821,-0.003478875,-0.004156847,-0.002852975,-0.004011704,-0.00376449,-0.003043133
756.9589233,-0.004489417,-0.004662469,-0.004645259,-0.003243741,-0.004234117,-0.002962565,-0.003327648,-0.003962816,-0.004198227,-0.003498442,-0.004305018,-0.003760846,-0.003317475
755.9697876,-0.004422698,-0.004444938,-0.004501663,-0.002950738,-0.003567716,-0.002909599,-0.003146558,-0.004122848,-0.003932034,-0.003076805,-0.004213865,-0.003933778,-0.003543274
754.9802856,-0.004007241,-0.004222069,-0.004011807,-0.002887691,-0.003582504,-0.002770932,-0.00285781,-0.003784404,-0.003786611,-0.003092433,-0.003892938,-0.003671633,-0.002884194
753.9904175,-0.003827102,-0.003961688,-0.003820431,-0.002525224,-0.003461258,-0.002683882,-0.003196412,-0.003782248,-0.00400442,-0.003005756,-0.004033709,-0.003466548,-0.003153446
753.0001831,-0.004094949,-0.004045866,-0.003993237,-0.002845312,-0.003756021,-0.002632632,-0.003368439,-0.004172897,-0.004057406,-0.003132732,-0.003760589,-0.004221864,-0.003082614
752.0095825,-0.003915052,-0.004497512,-0.00420156,-0.002895508,-0.00357624,-0.002730342,-0.003302781,-0.00406392,-0.004158642,-0.003129956,-0.004082435,-0.00394486,-0.003034547
751.0186768,-0.004221915,-0.004390616,-0.004159155,-0.003009972,-0.003791846,-0.003062771,-0.003052695,-0.003815145,-0.003958661,-0.002878331,-0.004237501,-0.004042429,-0.003337974
750.0273438,-0.004189613,-0.004516521,-0.00439779,-0.003186853,-0.003970768,-0.002720721,-0.003151698,-0.003893297,-0.004015141,-0.00332215,-0.004156129,-0.004033094,-0.003369877
749.0357056,-0.004342181,-0.004739547,-0.004585326,-0.003226629,-0.004085307,-0.002793823,-0.003552004,-0.004349202,-0.00447594,-0.003328213,-0.004153053,-0.004253805,-0.003607869
748.0437622,-0.004307888,-0.004560173,-0.004302813,-0.002888668,-0.003789844,-0.003061897,-0.003479029,-0.004534402,-0.004267493,-0.003226064,-0.004315014,-0.00408741,-0.00328305
747.0513916,-0.004200586,-0.004298097,-0.004432691,-0.003221901,-0.003873645,-0.003266813,-0.00320335,-0.003968254,-0.004173154,-0.003259106,-0.00423827,-0.003824023,-0.00353552
746.0586548,-0.004008575,-0.004623387,-0.004533685,-0.002842586,-0.004083256,-0.002851741,-0.003480621,-0.004141361,-0.003979592,-0.003377275,-0.00423222,-0.004143822,-0.003322459
745.0656128,-0.00418869,-0.00451068,-0.00437319,-0.002867325,-0.003963073,-0.002826795,-0.003549949,-0.004060381,-0.004059868,-0.003425407,-0.004095308,-0.003996469,-0.003515543
743.9302979,-0.004373702,-0.004626922,-0.004368731,-0.003123891,-0.00413572,-0.003199341,-0.003522014,-0.004118233,-0.00426575,-0.003415647,-0.004515343,-0.00415013,-0.003371624
742.9364624,-0.004131002,-0.004674864,-0.004286666,-0.003339053,-0.00398703,-0.003327185,-0.003490584,-0.003994058,-0.004150079,-0.003592209,-0.004235194,-0.004072383,-0.003605353
741.9423218,-0.004077973,-0.004529382,-0.004401737,-0.003038403,-0.004117925,-0.003055317,-0.003331706,-0.004252728,-0.004158796,-0.003351846,-0.004377495,-0.004124848,-0.003364175
740.9478149,-0.003824331,-0.004495258,-0.004254215,-0.002924564,-0.003667321,-0.00296709,-0.003388525,-0.004186075,-0.004256881,-0.00327596,-0.003966972,-0.003893862,-0.003346194
739.9529419,-0.004274875,-0.004725976,-0.004745846,-0.003154628,-0.004311323,-0.003330987,-0.003796054,-0.004356737,-0.004353405,-0.003283462,-0.004354789,-0.004513242,-0.003951735
738.9577637,-0.00404089,-0.004564425,-0.00445324,-0.003290809,-0.004167,-0.00296529,-0.003517341,-0.004213097,-0.00422617,-0.00326928,-0.004434279,-0.004136438,-0.003666191
737.9621582,-0.004156693,-0.004807292,-0.004419366,-0.00340712,-0.003976719,-0.003438042,-0.003859996,-0.004268108,-0.004594752,-0.00368113,-0.004436842,-0.004541832,-0.003723017
736.9663086,-0.004083205,-0.004462669,-0.004290151,-0.003025961,-0.003898479,-0.0029874,-0.003329857,-0.003982259,-0.00409536,-0.003326826,-0.004076845,-0.004031709,-0.003367463
735.9700317,-0.004030786,-0.00410054,-0.003936087,-0.002688513,-0.003802777,-0.003007658,-0.003283924,-0.004135104,-0.003900634,-0.00328305,-0.003916437,-0.003892579,-0.003354722
734.9734497,-0.004031812,-0.004339105,-0.004248268,-0.003005499,-0.003659723,-0.003133246,-0.003313159,-0.004124284,-0.003738262,-0.00325777,-0.003851375,-0.004147412,-0.003271232
733.9765015,-0.004182691,-0.004569087,-0.004273747,-0.003139928,-0.003887345,-0.003008995,-0.003524376,-0.00422253,-0.004242987,-0.003321945,-0.004187049,-0.004170436,-0.003462696
732.979187,-0.004113669,-0.004235245,-0.004021963,-0.003140647,-0.003788715,-0.002971409,-0.003212908,-0.004082794,-0.004039608,-0.003262086,-0.004041249,-0.003940654,-0.003209054
731.9815674,-0.004089154,-0.004093975,-0.004064382,-0.003013776,-0.003717731,-0.00283019,-0.0031536,-0.003922235,-0.003782864,-0.003133709,-0.003864255,-0.004039608,-0.003405374
730.9835815,-0.004295329,-0.004216839,-0.004229913,-0.002853593,-0.003673635,-0.002964211,-0.003388576,-0.003989595,-0.004132592,-0.003348968,-0.004018578,-0.003976257,-0.003188651
729.9852295,-0.004161821,-0.004376265,-0.004105258,-0.002824841,-0.003703563,-0.002699369,-0.00315103,-0.003883497,-0.004162539,-0.003278323,-0.003992006,-0.004026015,-0.003367
728.9865723,-0.004118746,-0.004053457,-0.003966254,-0.002852255,-0.003674559,-0.002740065,-0.003195538,-0.003836185,-0.004077102,-0.00318896,-0.00406751,-0.003887961,-0.003363764
727.9875488,-0.004096693,-0.004052687,-0.004086436,-0.002835539,-0.003614287,-0.002719589,-0.00306601,-0.004051969,-0.003839983,-0.003105129,-0.003872208,-0.003802212,-0.003119214
726.9881592,-0.003863639,-0.003753866,-0.003715883,-0.002555334,-0.003349071,-0.00256887,-0.002907388,-0.003702074,-0.003722658,-0.002952178,-0.003655205,-0.003594365,-0.00284454
725.9884644,-0.003891501,-0.003860714,-0.003706232,-0.002793515,-0.003391042,-0.002679921,-0.003056551,-0.003581221,-0.003629689,-0.003033879,-0.003746577,-0.003645964,-0.003166295
724.9884033,-0.004212584,-0.004048789,-0.003844447,-0.002761775,-0.00346737,-0.002812804,-0.002982516,-0.003731743,-0.003814273,-0.003065393,-0.00383988,-0.003966664,-0.003271027
723.9880371,-0.004043558,-0.003677845,-0.003603967,-0.002609527,-0.00326928,-0.0026421,-0.002930786,-0.003662598,-0.003519087,-0.002980305,-0.003729126,-0.00362322,-0.003025447
722.9873047,-0.003753917,-0.003754482,-0.003693553,-0.002423916,-0.003047503,-0.002450892,-0.002713261,-0.003541836,-0.003447288,-0.002996861,-0.003558011,-0.003654487,-0.002989457
721.9862061,-0.003824895,-0.003781992,-0.00368765,-0.002546018,-0.003144914,-0.002497994,-0.003025858,-0.003607869,-0.003368696,-0.002973775,-0.003489814,-0.003503167,-0.003043236
720.9848022,-0.003940243,-0.003762283,-0.00374591,-0.002517503,-0.003282845,-0.00264313,-0.002978299,-0.00379744,-0.003520781,-0.003042824,-0.003669169,-0.003737646,-0.003110732
719.9830322,-0.004026682,-0.003706181,-0.003575573,-0.002659081,-0.003171434,-0.002633558,-0.002891446,-0.003629022,-0.003456738,-0.002872982,-0.003648839,-0.003543428,-0.003094592
718.980957,-0.003975334,-0.003688728,-0.003411435,-0.002520231,-0.003156632,-0.002535158,-0.002791406,-0.003817916,-0.00352412,-0.00296128,-0.00361172,-0.003421657,-0.003054597
717.9785156,-0.003936857,-0.003774652,-0.003677126,-0.002619767,-0.00300555,-0.002521569,-0.002937883,-0.003627893,-0.003445952,-0.002891394,-0.003487554,-0.003551028,-0.003047246
716.975769,-0.003934958,-0.003690576,-0.003665113,-0.002597072,-0.002918496,-0.002588427,-0.002960303,-0.003558576,-0.003444411,-0.002817279,-0.003626044,-0.003499007,-0.002968119
715.9726563,-0.003813913,-0.003467575,-0.00347605,-0.002371502,-0.002870925,-0.002526819,-0.00276553,-0.003477231,-0.003330628,-0.002834202,-0.003511743,-0.003390117,-0.002959686
714.9691772,-0.003865127,-0.003571259,-0.00355149,-0.002531864,-0.002795212,-0.002618584,-0.002831373,-0.003363045,-0.003545636,-0.002871851,-0.003556368,-0.003501472,-0.002992748
713.9653931,-0.00402976,-0.003644578,-0.003460642,-0.002601807,-0.002960406,-0.002541334,-0.00279943,-0.003582094,-0.003482264,-0.002909754,-0.003600116,-0.003254635,-0.003063131
712.9613037,-0.004089103,-0.003674251,-0.003679641,-0.002552503,-0.002964725,-0.00267848,-0.002887177,-0.003446312,-0.003345218,-0.002973157,-0.003546868,-0.002104702,-0.003142395
711.9567871,-0.003733027,-0.003511178,-0.003404501,-0.002515547,-0.00262409,-0.002368927,-0.002631397,-0.003155553,-0.00302663,-0.002585647,-0.003283256,-0.000583647,-0.002835951
710.9520264,-0.003898633,-0.003589282,-0.003334841,-0.002218137,-0.002735229,-0.002430042,-0.002705852,-0.003251604,-0.003294508,-0.002623884,-0.003374295,0.000187325,-0.002733326
709.9468994,-0.003991339,-0.00363046,-0.003574956,-0.002393436,-0.002726329,-0.00264421,-0.002790171,-0.003454068,-0.003416521,-0.002720207,-0.003465008,0.000614942,-0.002908982
708.9414063,-0.003980002,-0.003666551,-0.003537985,-0.002499024,-0.002813473,-0.002490273,-0.002766096,-0.00343193,-0.003460231,-0.00275946,-0.003489044,0.000623782,-0.003069249
707.9356079,-0.003687701,-0.00338534,-0.003343369,-0.002195989,-0.002502936,-0.002145093,-0.002428601,-0.00304776,-0.003164444,-0.002507157,-0.003242662,0.000522175,-0.002678171
706.9294434,-0.004009293,-0.003662238,-0.003528125,-0.002307959,-0.002922353,-0.002398327,-0.002644673,-0.003458125,-0.003384364,-0.002632581,-0.003460385,-0.000583647,-0.002912788
706.0668335,-0.004267493,-0.003933881,-0.003763977,-0.002617091,-0.003108779,-0.002817742,-0.002855136,-0.0037823,-0.003677588,-0.002808227,-0.003817095,-0.001798865,-0.002791972
705.0600586,-0.00396887,-0.003556882,-0.003501369,-0.002295651,-0.002889183,-0.002587912,-0.002610659,-0.003256896,-0.003315625,-0.002600006,-0.003322048,-0.002691189,-0.002885891
704.0529785,-0.004016218,-0.003746629,-0.003564327,-0.002314705,-0.003172822,-0.002424894,-0.002576384,-0.003459666,-0.003526738,-0.002734715,-0.003593801,-0.00328973,-0.002732554
703.0455322,-0.004115976,-0.00375094,-0.003544609,-0.002237916,-0.00288584,-0.002587963,-0.002753235,-0.003505426,-0.003416366,-0.002681052,-0.003325439,-0.003372497,-0.002698546
702.0377808,-0.004202996,-0.003655565,-0.003556214,-0.002459335,-0.003109447,-0.002404248,-0.002658721,-0.003460745,-0.003498442,-0.002591412,-0.003493152,-0.003487143,-0.002866605
701.0297241,-0.004119515,-0.003740059,-0.003480364,-0.002461909,-0.002926313,-0.00237593,-0.002537937,-0.003409329,-0.003351743,-0.002614724,-0.003517495,-0.003407274,-0.002867428
700.0213013,-0.004071101,-0.003833979,-0.003485705,-0.002456452,-0.003194716,-0.002446774,-0.002649613,-0.003600475,-0.003436501,-0.00266011,-0.003639598,-0.003489352,-0.002798865
699.0125122,-0.0044846,-0.004090744,-0.003822997,-0.002708425,-0.003447699,-0.00272494,-0.002844335,-0.003681643,-0.003648326,-0.002874422,-0.003941782,-0.003439789,-0.003007607
698.003479,-0.00432829,-0.003945373,-0.003698789,-0.002439927,-0.003344191,-0.002471638,-0.002871851,-0.003731949,-0.00368534,-0.002844746,-0.003672044,-0.002907697,-0.002932072
696.9940186,-0.004438943,-0.004236476,-0.003908331,-0.002474264,-0.00349685,-0.002590022,-0.002733995,-0.003688266,-0.003700329,-0.002667263,-0.003909459,-0.002648893,-0.003143629
695.984314,-0.004311067,-0.003936036,-0.003623888,-0.002371914,-0.003445233,-0.002477404,-0.002641123,-0.003468397,-0.003463004,-0.002577413,-0.003598935,-0.002187747,-0.002866708
694.9742432,-0.004089513,-0.003830079,-0.003557395,-0.002211442,-0.0031923,-0.002292458,-0.002584618,-0.003388576,-0.003401367,-0.002474264,-0.00364848,-0.002006903,-0.002849581
693.9638672,-0.004504942,-0.004154847,-0.003891245,-0.002481316,-0.003327442,-0.002431123,-0.002543496,-0.003557344,-0.00363354,-0.002529393,-0.003639958,-0.002162866,-0.002756065
692.953125,-0.004178076,-0.003802264,-0.003677434,-0.002181411,-0.003087343,-0.002266192,-0.002311357,-0.003400134,-0.003413182,-0.002540922,-0.003386521,-0.001783706,-0.00271501
691.9420776,-0.004248319,-0.004064895,-0.003738365,-0.002514209,-0.003380152,-0.002342152,-0.002802054,-0.003628714,-0.003517187,-0.002618944,-0.003776654,-0.002365581,-0.002824018
690.9307251,-0.004511193,-0.004203867,-0.003873645,-0.002327888,-0.003447339,-0.002377475,-0.002646938,-0.003749092,-0.003482316,-0.002725866,-0.00367076,-0.002715936,-0.002765994
690.0635376,-0.004266878,-0.004178384,-0.004085718,-0.002361358,-0.003464032,-0.002433131,-0.0027787,-0.003734053,-0.003535776,-0.002760181,-0.003836442,-0.003327288,-0.00285565
689.0515747,-0.004226068,-0.004008729,-0.00386015,-0.00252193,-0.0031628,-0.00230868,-0.002457018,-0.003775217,-0.003483959,-0.002689491,-0.003611566,-0.003380717,-0.002671585
688.0393066,-0.004367501,-0.004079615,-0.004045712,-0.002563671,-0.003493871,-0.002436375,-0.002869228,-0.003855942,-0.003893502,-0.002451665,-0.003838649,-0.003572184,-0.002880697
687.0266724,-0.004444323,-0.003802777,-0.003725789,-0.002560944,-0.003233053,-0.002252904,-0.002681618,-0.003462645,-0.00367112,-0.002384735,-0.003574443,-0.003506299,-0.002726123
686.0136719,-0.004399892,-0.00408182,-0.003870258,-0.002436683,-0.003548152,-0.002392097,-0.002743101,-0.003708337,-0.003799082,-0.002825458,-0.003717987,-0.003627893,-0.002985138
685.0004272,-0.004605356,-0.004244115,-0.003754636,-0.002495626,-0.003467011,-0.002394311,-0.002679663,-0.003579629,-0.003895349,-0.002735127,-0.003673892,-0.003510716,-0.002829778
683.9868164,-0.004381698,-0.004095872,-0.00390007,-0.002247908,-0.003300315,-0.002357702,-0.002612614,-0.003599346,-0.003404809,-0.002480441,-0.003643449,-0.003716806,-0.002704875
682.9729004,-0.004329058,-0.003573878,-0.003757561,-0.002560326,-0.003526019,-0.002399203,-0.00275519,-0.003569154,-0.003562017,-0.00251704,-0.003801237,-0.00373082,-0.002598462
681.9586792,-0.004167052,-0.003056191,-0.00360294,-0.002266656,-0.003231974,-0.002157714,-0.002524194,-0.00329867,-0.003386727,-0.002165596,-0.003475588,-0.003247184,-0.002387309
680.9440918,-0.004235451,-0.003190502,-0.003980823,-0.002295857,-0.003580707,-0.00225857,-0.002650591,-0.003701766,-0.003410048,-0.002528158,-0.00353059,-0.003577729,-0.00279228
679.9291992,-0.004737652,-0.00329086,-0.004252369,-0.002700398,-0.003843164,-0.002348743,-0.002991257,-0.00397559,-0.003887858,-0.002677811,-0.003985491,-0.003815812,-0.003030434
679.059021,-0.004363605,-0.003008224,-0.003821355,-0.002286381,-0.003206484,-0.001815775,-0.002632426,-0.003493255,-0.003563917,-0.002418922,-0.003479902,-0.003334635,-0.002399151
678.0435181,-0.004616369,-0.003554211,-0.004094539,-0.002431381,-0.003786765,-0.002116861,-0.002718457,-0.003773164,-0.003840342,-0.002633661,-0.003895349,-0.003871541,-0.002793309
677.02771,-0.004723313,-0.003705924,-0.004102642,-0.002619047,-0.003668091,-0.002623524,-0.002795161,-0.003833055,-0.003901353,-0.002882034,-0.004014064,-0.003931008,-0.00289628
676.0115967,-0.004649101,-0.003810731,-0.004043506,-0.00238839,-0.003497723,-0.002326085,-0.002806683,-0.003710544,-0.003696017,-0.002619458,-0.00374165,-0.003566998,-0.002690211
674.9951782,-0.004538245,-0.003748682,-0.003830848,-0.002117943,-0.003271952,-0.002118767,-0.002552554,-0.003549898,-0.003912076,-0.002344932,-0.003663881,-0.003319119,-0.002660831
673.9783936,-0.00458671,-0.003944604,-0.003887653,-0.002711512,-0.003578345,-0.002353171,-0.002653215,-0.003764285,-0.003794566,-0.002534334,-0.00384963,-0.003687034,-0.002656045
672.9613037,-0.004455187,-0.004379853,-0.004103001,-0.002708013,-0.003551952,-0.002331801,-0.002836465,-0.003881444,-0.003879443,-0.002549209,-0.003724044,-0.003758228,-0.00295948
671.9439087,-0.004503405,-0.004235656,-0.004027708,-0.002728541,-0.003415699,-0.002389111,-0.00277515,-0.003627122,-0.003824177,-0.002707447,-0.003872208,-0.003998829,-0.002637881
671.0715942,-0.004653301,-0.004445502,-0.004091513,-0.002626611,-0.003681387,-0.002672511,-0.003005756,-0.003943732,-0.003823613,-0.002736927,-0.004084487,-0.003975026,-0.002796395
670.0536499,-0.004732019,-0.004360325,-0.004224479,-0.002616062,-0.003545944,-0.002763576,-0.00279156,-0.003962355,-0.003769623,-0.002670093,-0.004071563,-0.003980515,-0.00299974
669.0353394,-0.004831715,-0.004267083,-0.004118079,-0.002674569,-0.003774704,-0.002533202,-0.002738213,-0.003961944,-0.003942654,-0.002793412,-0.003887242,-0.003717012,-0.002869691
668.0167236,-0.004632659,-0.004048892,-0.003958302,-0.002537474,-0.003555598,-0.002482706,-0.002709505,-0.003673019,-0.004115617,-0.002775562,-0.003774139,-0.003654743,-0.002847163
666.9977417,-0.004680498,-0.004146694,-0.00391264,-0.002322069,-0.003510716,-0.002380667,-0.00253207,-0.00374591,-0.003646375,-0.002766817,-0.003820739,-0.003858815,-0.002848295
665.9785156,-0.004427669,-0.004137259,-0.004076281,-0.002470145,-0.003465881,-0.002222464,-0.002739757,-0.003620243,-0.003781581,-0.002432153,-0.003824075,-0.00369073,-0.002765119
664.9589844,-0.004300865,-0.004029504,-0.003745756,-0.00237835,-0.003238089,-0.002394878,-0.00282695,-0.003675021,-0.003836288,-0.002648275,-0.003823151,-0.003579013,-0.00286357
663.9390869,-0.004554025,-0.004172743,-0.003970358,-0.002512253,-0.003516827,-0.002356055,-0.002805243,-0.00377768,-0.00362322,-0.002713158,-0.003796721,-0.003824126,-0.002854158
663.0646362,-0.004307427,-0.003919824,-0.003671479,-0.002423504,-0.003481802,-0.00217595,-0.002464123,-0.003558011,-0.00356366,-0.0022271,-0.003566638,-0.003454324,-0.002452848
662.0441895,-0.004239347,-0.003831516,-0.003492022,-0.002075024,-0.003460231,-0.002394929,-0.00236522,-0.003401984,-0.003401984,-0.002564238,-0.003592979,-0.003601091,-0.002636749
661.0234375,-0.004483626,-0.003962457,-0.003848245,-0.002469528,-0.00346773,-0.002171623,-0.00258889,-0.003284746,-0.003695093,-0.002432307,-0.003634156,-0.003599911,-0.002613129
660.0023193,-0.004845897,-0.004339925,-0.004135207,-0.002755139,-0.003939987,-0.00257237,-0.002898954,-0.003982105,-0.004074947,-0.002798916,-0.004129053,-0.004036531,-0.00320263
658.980957,-0.004685773,-0.004217967,-0.004149463,-0.002552554,-0.00371732,-0.002458614,-0.002813987,-0.003937678,-0.003658593,-0.002785336,-0.004054637,-0.003837212,-0.002807455
657.9592285,-0.004438533,-0.004034479,-0.003542093,-0.002267068,-0.003486989,-0.002382881,-0.002525378,-0.0034874,-0.003561144,-0.002488368,-0.003756432,-0.003572235,-0.002629493
656.9371948,-0.004442171,-0.003925467,-0.00387031,-0.002187541,-0.003432392,-0.002366147,-0.002384271,-0.003528279,-0.003534595,-0.00244492,-0.003612438,-0.003319684,-0.002506385
656.0609741,-0.004612118,-0.004072793,-0.00368652,-0.00252615,-0.003476718,-0.002146175,-0.002545658,-0.003436399,-0.003626198,-0.002381748,-0.003553031,-0.003449496,-0.002634485
655.0383301,-0.004596136,-0.004080333,-0.00363698,-0.002257282,-0.00365156,-0.002364757,-0.002715113,-0.003634413,-0.003624555,-0.00247308,-0.003878366,-0.003902584,-0.002751332
654.0154419,-0.004458313,-0.004131463,-0.003587485,-0.002294569,-0.003373833,-0.002302242,-0.002704309,-0.003506916,-0.003558422,-0.002540717,-0.003534287,-0.003683492,-0.002047251
652.9922485,-0.004416189,-0.00387226,-0.003657515,-0.002147978,-0.003222004,-0.002221486,-0.002592801,-0.003381539,-0.003496542,-0.002435242,-0.003682003,-0.00350404,-0.001404886
651.968689,-0.004643569,-0.003998111,-0.003855326,-0.002492178,-0.00356633,-0.002458872,-0.002637778,-0.003683594,-0.003792872,-0.00275982,-0.003781838,-0.003683029,-0.001557352
650.9448853,-0.004775188,-0.004282462,-0.003868103,-0.00241712,-0.003599705,-0.002527797,-0.00272211,-0.003867847,-0.003686623,-0.002749943,-0.003824177,-0.003724249,-0.001549768
650.0670776,-0.004362478,-0.003982567,-0.00368919,-0.002310534,-0.003260801,-0.002181565,-0.002346168,-0.00350974,-0.003509894,-0.002428343,-0.003479285,-0.00360638,-0.001366439
649.0426636,-0.004671586,-0.004006062,-0.003843164,-0.0023025,-0.003357394,-0.002225194,-0.002635977,-0.003520473,-0.003705,-0.002722367,-0.003680925,-0.003609255,-0.001769733
648.0179443,-0.004627793,-0.004171564,-0.003953992,-0.002376393,-0.00364694,-0.002461652,-0.002716605,-0.003909921,-0.003784866,-0.002616216,-0.003729228,-0.003767467,-0.002395238
646.992981,-0.004702674,-0.004257803,-0.004041557,-0.00239529,-0.003680771,-0.002535518,-0.002617915,-0.00400678,-0.003840701,-0.002602373,-0.004023759,-0.00400165,-0.002904045
645.9676514,-0.004346998,-0.003986671,-0.003700278,-0.002149008,-0.003290963,-0.002506899,-0.002581633,-0.003573159,-0.003716498,-0.002513025,-0.003792,-0.003736158,-0.002206187
644.9420166,-0.004492235,-0.00428846,-0.003899762,-0.002529599,-0.003772753,-0.002556826,-0.002783741,-0.003825563,-0.00374396,-0.00261565,-0.003767108,-0.003778758,-0.002811313
644.0626831,-0.004349869,-0.00392988,-0.003668348,-0.002297505,-0.003377891,-0.002082289,-0.002352347,-0.003476461,-0.00352299,-0.002548283,-0.003659261,-0.003559706,-0.002559194
643.036499,-0.004273337,-0.003801083,-0.003730717,-0.002274741,-0.00321558,-0.002306002,-0.002555591,-0.003528844,-0.003442614,-0.002221434,-0.003650277,-0.003406915,-0.002504068
642.0100098,-0.004269236,-0.003842138,-0.003712443,-0.002270055,-0.003108779,-0.002241779,-0.002676319,-0.003648788,-0.003576497,-0.002324644,-0.003896683,-0.003496028,-0.002540408
640.9832153,-0.00466462,-0.004220839,-0.003916027,-0.002373922,-0.00340522,-0.002520437,-0.002770932,-0.003736055,-0.003654178,-0.002808998,-0.003781581,-0.003685391,-0.002607931
639.9561157,-0.004497512,-0.003997033,-0.003807088,-0.002340761,-0.003172616,-0.002281849,-0.002560017,-0.003682208,-0.0036186,-0.00245012,-0.00367343,-0.003602426,-0.002637006
638.9287109,-0.004529894,-0.003878058,-0.003799646,-0.002438228,-0.003192506,-0.002212266,-0.002726535,-0.003655308,-0.003697249,-0.002475963,-0.003779836,-0.003580502,-0.002643078
638.0478516,-0.004432435,-0.003833312,-0.003631846,-0.002226482,-0.002948836,-0.002287874,-0.002379277,-0.003464802,-0.003457714,-0.00240986,-0.003729793,-0.003536495,-0.002444612
637.0198975,-0.004570162,-0.004006421,-0.003730306,-0.002419848,-0.003169995,-0.002495472,-0.002451304,-0.003655975,-0.003613671,-0.002584773,-0.003736825,-0.003552466,-0.00282803
635.9916382,-0.004386515,-0.003729126,-0.003736106,-0.002209896,-0.003206433,-0.002245488,-0.002493516,-0.003450113,-0.003688009,-0.002363006,-0.003613209,-0.003627944,-0.002558988
634.9630737,-0.00439861,-0.003867949,-0.003643038,-0.00223359,-0.003209568,-0.002351884,-0.002448267,-0.00325109,-0.003635645,-0.002497171,-0.003525455,-0.003426177,-0.002648481
633.9342041,-0.004543317,-0.003844653,-0.003846962,-0.002189241,-0.003390939,-0.002148648,-0.002507363,-0.003167939,-0.003475947,-0.002348279,-0.003666397,-0.003509329,-0.002549157
633.052124,-0.004802684,-0.004344692,-0.004054893,-0.002370987,-0.003590361,-0.002403064,-0.002729982,-0.003415647,-0.00369191,-0.002616525,-0.003833774,-0.003886062,-0.002841043
632.0227051,-0.004536708,-0.003977899,-0.003705513,-0.002212472,-0.003356829,-0.002237041,-0.002464895,-0.0030456,-0.003561811,-0.002358887,-0.003790563,-0.003520422,-0.002766817
630.992981,-0.004448474,-0.003789382,-0.003488992,-0.002211493,-0.003348917,-0.002024681,-0.002196246,-0.003055779,-0.003511897,-0.00233453,-0.003549436,-0.003294252,-0.002379483
629.9629517,-0.004569496,-0.004073204,-0.003783737,-0.002380976,-0.003493974,-0.002202582,-0.002646423,-0.003367309,-0.003564892,-0.002398894,-0.003721324,-0.003762129,-0.002792692
628.9326782,-0.004407682,-0.003988467,-0.003583583,-0.002239822,-0.003335765,-0.002234156,-0.002605409,-0.003374038,-0.003448418,-0.002431123,-0.003602632,-0.003631384,-0.002679715
628.0493164,-0.004360684,-0.003900634,-0.003737903,-0.00221685,-0.003324771,-0.002072242,-0.002433543,-0.003375836,-0.003474406,-0.002440338,-0.00366383,-0.003465727,-0.002484868
627.0184326,-0.004701138,-0.004031196,-0.003811604,-0.002229984,-0.003471273,-0.002118922,-0.002455783,-0.003507224,-0.00361557,-0.002583898,-0.003784506,-0.003673327,-0.002836774
625.9873047,-0.004559814,-0.004134848,-0.003814735,-0.002295238,-0.003590514,-0.002373253,-0.002471278,-0.003539166,-0.003620705,-0.002683522,-0.003763156,-0.003705257,-0.002732709
624.9558716,-0.004493926,-0.003979386,-0.003782556,-0.002211184,-0.003235417,-0.002281282,-0.002391274,-0.003371573,-0.00347153,-0.00232418,-0.003593544,-0.003347633,-0.002579883
624.0715332,-0.004504891,-0.003963176,-0.003666294,-0.002029216,-0.003351743,-0.00217595,-0.002415009,-0.003471633,-0.003408559,-0.002316713,-0.003539679,-0.003425304,-0.002626045
623.0394897,-0.004425362,-0.004076127,-0.003745294,-0.002120673,-0.003482778,-0.002171675,-0.002683985,-0.003639085,-0.003568538,-0.002555849,-0.0035957,-0.0035766,-0.002604638
622.0072021,-0.004446425,-0.004028478,-0.003716755,-0.002433286,-0.003323692,-0.00208976,-0.002406308,-0.003452527,-0.00328711,-0.00235796,-0.0038056,-0.003567562,-0.002615753
620.9746094,-0.004630251,-0.004061458,-0.003905714,-0.002223185,-0.003291837,-0.002136232,-0.002326858,-0.003384364,-0.003438505,-0.002431329,-0.00369535,-0.003475125,-0.002655376
619.9417725,-0.004445707,-0.004237194,-0.003668142,-0.002127422,-0.003402086,-0.002182956,-0.00244631,-0.003287315,-0.00339998,-0.002591412,-0.003612028,-0.003444617,-0.002749068
619.0562134,-0.004530765,-0.004067357,-0.003725738,-0.002265316,-0.003309203,-0.002082547,-0.002492332,-0.003596625,-0.003598422,-0.002372583,-0.003613106,-0.003526174,-0.002478434
618.0227661,-0.004625744,-0.004088333,-0.003792,-0.002234826,-0.00346814,-0.00229632,-0.002405793,-0.003565611,-0.003681951,-0.002499178,-0.003618394,-0.003604532,-0.002481007
616.9890747,-0.004886136,-0.004167462,-0.003915668,-0.002407492,-0.003532028,-0.002314087,-0.002622083,-0.003589847,-0.003709158,-0.002549157,-0.003714805,-0.003574289,-0.00257098
615.9550781,-0.004588349,-0.00401868,-0.003587382,-0.002029113,-0.003283616,-0.002185326,-0.002366559,-0.003554058,-0.003659107,-0.00244492,-0.003643859,-0.003441843,-0.002575149
615.0685425,-0.004509092,-0.003933471,-0.003528844,-0.002107072,-0.003356983,-0.001892948,-0.002404506,-0.003434652,-0.003480107,-0.002390244,-0.003560117,-0.003499212,-0.002595992
614.0339966,-0.004605356,-0.003942859,-0.003564533,-0.002095067,-0.003161001,-0.00209517,-0.002511944,-0.003262446,-0.003509637,-0.00235106,-0.003530847,-0.003331244,-0.002463711
612.9991455,-0.004452676,-0.003979951,-0.003609101,-0.002158848,-0.003212189,-0.002062503,-0.002452282,-0.003476461,-0.003305658,-0.002460828,-0.003599449,-0.003469733,-0.002514363
611.9640503,-0.00439164,-0.003870258,-0.003545944,-0.002138035,-0.003164239,-0.002071521,-0.002487391,-0.003519292,-0.003480929,-0.002256767,-0.003430389,-0.003452424,-0.002391892
610.9286499,-0.004376111,-0.00369073,-0.003323692,-0.00192774,-0.003137564,-0.001926246,-0.002287616,-0.003220822,-0.003186133,-0.002330926,-0.003267584,-0.003191375,-0.002337208
610.0408936,-0.004684647,-0.004015038,-0.003763207,-0.002246415,-0.003449137,-0.00212598,-0.002586934,-0.003531001,-0.003612541,-0.002376291,-0.003627585,-0.003601554,-0.002609938
609.0049438,-0.004631583,-0.004129463,-0.00380755,-0.00235312,-0.00349346,-0.002294105,-0.002668909,-0.003653768,-0.003619678,-0.002584515,-0.003825409,-0.003666859,-0.002619973
607.96875,-0.004429308,-0.003867487,-0.003650482,-0.002063585,-0.003156992,-0.002077034,-0.002517554,-0.003413592,-0.003473995,-0.002340813,-0.003515595,-0.003514773,-0.002611431
606.9321899,-0.004510834,-0.003728304,-0.003398953,-0.002018394,-0.003265991,-0.002024218,-0.002475602,-0.003170046,-0.003433214,-0.002312748,-0.00345078,-0.003266762,-0.002416656
606.0435181,-0.004442632,-0.003715369,-0.003418524,-0.001887999,-0.003243176,-0.002048179,-0.002331544,-0.003301188,-0.00341801,-0.002243427,-0.003424893,-0.003356572,-0.002493516
605.0064697,-0.004626512,-0.003888577,-0.003656386,-0.001876813,-0.003296769,-0.002133759,-0.002618687,-0.003413233,-0.003529255,-0.002402755,-0.003617059,-0.003501112,-0.002475499
603.9691162,-0.004727308,-0.004201355,-0.003849374,-0.001959129,-0.003616546,-0.002348691,-0.002741094,-0.003849014,-0.003865127,-0.00260119,-0.003761924,-0.003753199,-0.002771755
602.9315186,-0.004665133,-0.004012884,-0.003846192,-0.001877174,-0.003591952,-0.00224147,-0.00263078,-0.003603094,-0.003648428,-0.002541746,-0.003617111,-0.003741085,-0.002656045
602.0418701,-0.004542907,-0.003917258,-0.003652433,-0.001617601,-0.003290655,-0.002037358,-0.002354304,-0.003469425,-0.003472044,-0.002334428,-0.003522168,-0.003497466,-0.002455062
601.0037231,-0.00459634,-0.003829258,-0.003650379,-0.001878669,-0.003433317,-0.002202685,-0.002426799,-0.003535879,-0.003732411,-0.002473337,-0.003607201,-0.00345417,-0.002559554
599.965271,-0.004347357,-0.003770854,-0.003480877,-0.00164241,-0.003171023,-0.001989587,-0.002443067,-0.003336536,-0.003440302,-0.00235142,-0.003357651,-0.003485038,-0.002424327
598.9265747,-0.004489929,-0.00368421,-0.003255714,-0.001827581,-0.003282074,-0.001963458,-0.00245254,-0.003363302,-0.003508354,-0.002285453,-0.003474766,-0.003322664,-0.002522136
598.0360107,-0.00431773,-0.003697916,-0.003362685,-0.001905164,-0.003171948,-0.001835624,-0.00223086,-0.003306942,-0.003414928,-0.002225658,-0.003364483,-0.00320042,-0.002449966
596.9967651,-0.004689666,-0.003936806,-0.003638109,-0.00221412,-0.003529049,-0.002130153,-0.00255204,-0.003460539,-0.00361213,-0.002470866,-0.003654795,-0.003411435,-0.002653421
595.9572754,-0.004724952,-0.003974,-0.003525763,-0.002308164,-0.003392326,-0.002258106,-0.002476271,-0.003501266,-0.003680463,-0.002350236,-0.003630357,-0.003537317,-0.002564032
595.065979,-0.004659294,-0.003802469,-0.003655103,-0.002122889,-0.003330011,-0.002115727,-0.002374797,-0.003437272,-0.003494282,-0.00240152,-0.003522682,-0.003409689,-0.002646783
594.0259399,-0.004752452,-0.003835005,-0.003587177,-0.002144268,-0.003360117,-0.002206033,-0.002535209,-0.003666859,-0.003515132,-0.002578288,-0.003568024,-0.00354579,-0.00263927
592.9856567,-0.004421826,-0.003718295,-0.003377532,-0.002013087,-0.003143988,-0.002054001,-0.002273969,-0.00311212,-0.003422119,-0.002375879,-0.00326296,-0.003572389,-0.00249367
591.9450073,-0.004492081,-0.0036896,-0.003443692,-0.00192738,-0.003179658,-0.001921864,-0.00240569,-0.003407685,-0.003341262,-0.002183111,-0.003455403,-0.003515492,-0.002506642
591.0528564,-0.004456109,-0.003547023,-0.003223597,-0.001960675,-0.003185979,-0.001790203,-0.002181565,-0.0032163,-0.003044007,-0.002151635,-0.003301753,-0.003357445,-0.002324695
590.0117188,-0.004516726,-0.003467832,-0.003384826,-0.001887845,-0.002821497,-0.001785047,-0.00213855,-0.003002774,-0.003292094,-0.002148235,-0.003247184,-0.003279916,-0.00235487
588.9703369,-0.004488545,-0.00369689,-0.003371521,-0.001856915,-0.003144502,-0.001778808,-0.002255274,-0.003272466,-0.003073258,-0.002205672,-0.003489095,-0.00340486,-0.002550135
587.9286499,-0.004488443,-0.003536906,-0.003376915,-0.001925885,-0.002908417,-0.001886917,-0.002138859,-0.003174569,-0.003362891,-0.002145866,-0.00333073,-0.003241429,-0.002376496
587.0355225,-0.004411269,-0.003581837,-0.003454735,-0.001877947,-0.00291433,-0.001830005,-0.002207321,-0.003124559,-0.003259619,-0.002237144,-0.003236907,-0.003215221,-0.002354561
585.9933472,-0.004414959,-0.003603197,-0.00326594,-0.001787522,-0.002988326,-0.001872174,-0.002427983,-0.003197491,-0.00325556,-0.002283651,-0.003283462,-0.0032626,-0.002356878
584.9508667,-0.004447859,-0.003467422,-0.003167168,-0.001872174,-0.002817074,-0.001933101,-0.002312439,-0.003283821,-0.003229045,-0.002026845,-0.003342187,-0.003235108,-0.002348485
584.0570679,-0.004518673,-0.003408148,-0.003336741,-0.001983248,-0.003091764,-0.002004481,-0.002350957,-0.003273596,-0.003223906,-0.002123301,-0.00347492,-0.003303346,-0.002423658
583.0140991,-0.004221044,-0.003416418,-0.003193277,-0.001855987,-0.002787342,-0.001820879,-0.001985413,-0.003035678,-0.003168248,-0.002179093,-0.003159459,-0.003218869,-0.002265368
581.9708252,-0.004503251,-0.003500856,-0.003361196,-0.001955366,-0.003094335,-0.001739775,-0.002272527,-0.003339053,-0.003204943,-0.002225555,-0.003234851,-0.00332215,-0.002340195
580.9273071,-0.004461234,-0.003268663,-0.003244923,-0.001822684,-0.002944516,-0.001759421,-0.002145608,-0.003135662,-0.003065393,-0.002103311,-0.003174364,-0.003133657,-0.002161784
580.0326538,-0.00436217,-0.00342741,-0.00305871,-0.001774683,-0.002873188,-0.001916607,-0.002041274,-0.003032542,-0.003172462,-0.002004171,-0.003035267,-0.003032336,-0.002256355
578.9885864,-0.004394562,-0.003313468,-0.00300627,-0.00183382,-0.003069917,-0.001752718,-0.002159723,-0.003109756,-0.003139568,-0.001963819,-0.003186133,-0.003131807,-0.002285402
577.9442749,-0.004379238,-0.003524017,-0.003117569,-0.001747355,-0.00302555,-0.00169192,-0.002188262,-0.002869948,-0.003097881,-0.001962943,-0.003118083,-0.003132475,-0.002246466
577.0488892,-0.004367193,-0.003485757,-0.00309526,-0.00171951,-0.002948939,-0.001780097,-0.002116706,-0.00292297,-0.003245437,-0.002057042,-0.003125022,-0.003180685,-0.002267222
576.0040894,-0.004422493,-0.003474047,-0.003121784,-0.001834593,-0.002972335,-0.001701925,-0.002160341,-0.002872982,-0.003172719,-0.002105526,-0.003033416,-0.003080661,-0.002232714
574.9589844,-0.004444221,-0.00355529,-0.003244563,-0.001904236,-0.003179143,-0.001830778,-0.002233641,-0.002983133,-0.003217893,-0.002175023,-0.003252066,-0.003197028,-0.002403527
574.0629883,-0.004375189,-0.003515697,-0.003188497,-0.001787367,-0.0030201,-0.001686351,-0.002183059,-0.002803494,-0.003095208,-0.002098004,-0.003065599,-0.003114999,-0.002365787
573.017395,-0.004297943,-0.003470092,-0.003086367,-0.001803556,-0.002890828,-0.001667475,-0.002141693,-0.002869279,-0.003081997,-0.002026279,-0.00299501,-0.003094437,-0.002277986
571.9714966,-0.004524002,-0.00360104,-0.003181353,-0.00190269,-0.003035627,-0.001831448,-0.002308937,-0.002941585,-0.00312605,-0.002139529,-0.003233515,-0.003237883,-0.002229572
570.925354,-0.004581279,-0.003758947,-0.003274418,-0.001831396,-0.002959429,-0.001846605,-0.002342821,-0.002974649,-0.003301804,-0.002140302,-0.003158482,-0.003331604,-0.002486515
570.0284424,-0.004372882,-0.003489557,-0.002992079,-0.001607749,-0.002750663,-0.00184578,-0.002050446,-0.002799893,-0.002967347,-0.00206508,-0.003006835,-0.003109242,-0.002218704
568.9818115,-0.004457442,-0.003566176,-0.003096082,-0.00178051,-0.002709094,-0.0016339,-0.002156581,-0.002984881,-0.003022157,-0.002064513,-0.003065701,-0.003125228,-0.002237813
567.9348755,-0.004226734,-0.003309255,-0.002911656,-0.001512572,-0.002622083,-0.001627143,-0.001967478,-0.002915976,-0.002945133,-0.001893051,-0.002963131,-0.002964108,-0.002036688
567.0373535,-0.004529945,-0.003549539,-0.003129237,-0.001882896,-0.002902965,-0.001706102,-0.002139838,-0.002949402,-0.003127849,-0.002062555,-0.003182947,-0.003030794,-0.002265111
565.9899292,-0.004479373,-0.003708286,-0.003121218,-0.001830365,-0.003006476,-0.00166175,-0.002132729,-0.002953927,-0.003109653,-0.002250432,-0.003205816,-0.003284078,-0.002307032
564.9422607,-0.004377854,-0.003474458,-0.002986578,-0.001809021,-0.00299064,-0.001592223,-0.0019632,-0.002833945,-0.003016861,-0.001963303,-0.003057836,-0.003056345,-0.002130874
564.0440063,-0.004318704,-0.003414106,-0.003067861,-0.001667733,-0.002870925,-0.001524232,-0.002051322,-0.002687896,-0.002854004,-0.002064668,-0.003023494,-0.003098447,-0.002224679
562.9958496,-0.004401173,-0.003390837,-0.003104924,-0.001815208,-0.002886868,-0.001693725,-0.002157096,-0.002828133,-0.003056294,-0.002047097,-0.003005756,-0.003137461,-0.002371399
561.9473877,-0.004293689,-0.003253299,-0.002937112,-0.001658089,-0.002837648,-0.001682998,-0.002018704,-0.002689079,-0.002751229,-0.001909494,-0.003018095,-0.002973003,-0.002099086
561.0485229,-0.004332493,-0.003204172,-0.002932278,-0.001663246,-0.002833482,-0.001526089,-0.001952429,-0.00275447,-0.002977117,-0.001893308,-0.002890726,-0.003038763,-0.002108514
559.9996338,-0.004442376,-0.003433368,-0.003077473,-0.001829644,-0.002935363,-0.001733381,-0.002123919,-0.00288908,-0.003059738,-0.002129741,-0.003006064,-0.00301501,-0.002290243
558.9504395,-0.004317987,-0.003205251,-0.002898285,-0.001611669,-0.002769646,-0.00149436,-0.001880267,-0.002815736,-0.002910577,-0.002000203,-0.002820829,-0.002926878,-0.002179917
558.0509033,-0.004238065,-0.003198108,-0.002848706,-0.00142883,-0.002681104,-0.001566534,-0.001929699,-0.00275802,-0.002829727,-0.001989845,-0.002858222,-0.003051101,-0.0020911
557.0012207,-0.004286512,-0.003179863,-0.002869948,-0.001591449,-0.002724631,-0.001491367,-0.001846295,-0.00276764,-0.00289844,-0.001919442,-0.002918856,-0.002949453,-0.002078476
555.9512939,-0.004406657,-0.003261007,-0.002800408,-0.001628639,-0.002910885,-0.001609864,-0.001929957,-0.002800871,-0.00293922,-0.002101662,-0.002846495,-0.003070791,-0.002214378
555.0510864,-0.004293484,-0.003286955,-0.002706624,-0.00163261,-0.002892474,-0.001568546,-0.001760298,-0.002812856,-0.002903017,-0.002127165,-0.002743307,-0.002964879,-0.002137674
554.0006714,-0.004208687,-0.003129751,-0.002742843,-0.00151381,-0.002818051,-0.001463867,-0.001739517,-0.002615445,-0.002774482,-0.001954233,-0.002727821,-0.002872828,-0.002070696
552.9500122,-0.004381544,-0.003389193,-0.003027298,-0.001701048,-0.002987503,-0.001691198,-0.001920009,-0.002878743,-0.003060098,-0.002157611,-0.002974957,-0.003051667,-0.002296062
552.0491943,-0.004464359,-0.003280379,-0.002872982,-0.001623378,-0.002958143,-0.001697541,-0.001891092,-0.002872314,-0.00302483,-0.002074818,-0.002864856,-0.003035061,-0.002298946
550.9979858,-0.004232323,-0.003042464,-0.0026739,-0.001573859,-0.002729364,-0.001509683,-0.001687537,-0.002689748,-0.002793361,-0.001891814,-0.002634639,-0.002879411,-0.002119797
549.9465332,-0.004285794,-0.003001488,-0.002598565,-0.001447407,-0.002657589,-0.00149405,-0.001739981,-0.002677348,-0.002716451,-0.001876504,-0.002605049,-0.002912273,-0.002072757
549.045105,-0.004173308,-0.003110784,-0.002583023,-0.001296451,-0.0027182,-0.001394307,-0.001691044,-0.002576641,-0.002693607,-0.001965262,-0.002555437,-0.002752361,-0.00207353
547.9932251,-0.004206687,-0.003012285,-0.002588427,-0.00139761,-0.002617709,-0.001438893,-0.00188568,-0.002665565,-0.002668961,-0.001954851,-0.0024982,-0.002786982,-0.002064977
546.94104,-0.004372677,-0.003089965,-0.00270508,-0.001426715,-0.002809872,-0.001542495,-0.001850162,-0.002736567,-0.002835231,-0.001919648,-0.002536496,-0.002968273,-0.002073942
546.0389404,-0.004219505,-0.002889954,-0.002600006,-0.001370981,-0.002622803,-0.001458965,-0.001756327,-0.002692166,-0.002655479,-0.001893927,-0.002683111,-0.002848655,-0.002067038
544.9862671,-0.004095257,-0.002793103,-0.002508598,-0.00133026,-0.002557547,-0.001370413,-0.001725285,-0.00248425,-0.002548128,-0.001906762,-0.002578597,-0.002807866,-0.00206812
543.9333496,-0.004216839,-0.002804934,-0.002618635,-0.001434094,-0.002626611,-0.001447303,-0.001795049,-0.002638396,-0.002709351,-0.001973456,-0.002613077,-0.002834665,-0.002096922
543.0307007,-0.004087564,-0.002602785,-0.002464895,-0.001295058,-0.002527128,-0.001286076,-0.00175643,-0.002434006,-0.00249017,-0.001796287,-0.002523422,-0.002659287,-0.001990721
541.9772949,-0.004191151,-0.00270966,-0.002553481,-0.001432701,-0.002617503,-0.001432546,-0.001823302,-0.002557444,-0.002667366,-0.001899906,-0.002656508,-0.00282875,-0.002060494
541.0741577,-0.004600592,-0.003072076,-0.00293382,-0.00176994,-0.002841609,-0.001751016,-0.002068274,-0.002907491,-0.002951253,-0.002138859,-0.002946419,-0.003071356,-0.002338907
540.0203247,-0.004275644,-0.002728438,-0.002676473,-0.001494927,-0.00262975,-0.001454992,-0.001950419,-0.002626148,-0.002680692,-0.002003656,-0.002665925,-0.002873908,-0.002025197
538.9661865,-0.004192997,-0.002696282,-0.002508444,-0.001429862,-0.002476992,-0.001399158,-0.001736423,-0.002624656,-0.002621054,-0.001883721,-0.002584361,-0.002719023,-0.002150657
538.062439,-0.003950299,-0.002496193,-0.002277832,-0.001100157,-0.002253883,-0.0011646,-0.001526915,-0.002327064,-0.002223649,-0.00163849,-0.002245848,-0.002456864,-0.001799071
537.0078735,-0.004201868,-0.002762753,-0.002450738,-0.001362878,-0.002427056,-0.001342389,-0.001747046,-0.002466799,-0.002556981,-0.001792678,-0.002498303,-0.002705286,-0.001961242
535.9530029,-0.004238373,-0.002771807,-0.002520385,-0.001339756,-0.002374231,-0.001253349,-0.001812476,-0.002462527,-0.002621414,-0.001917277,-0.002583486,-0.002668086,-0.002070954
535.048645,-0.003933163,-0.002430866,-0.002129071,-0.001081772,-0.002033957,-0.001116888,-0.001636272,-0.002213708,-0.002246106,-0.001646536,-0.002282827,-0.002483684,-0.001798194
533.9933472,-0.004104848,-0.002644159,-0.002344675,-0.001318698,-0.001887123,-0.001296245,-0.001688259,-0.002362852,-0.002523422,-0.001741425,-0.002426387,-0.002639682,-0.001897278
532.9377441,-0.004378879,-0.002929089,-0.002672871,-0.001549356,-0.001804742,-0.001465466,-0.001944852,-0.002653421,-0.002741454,-0.002002935,-0.002704617,-0.002807146,-0.00208502
532.0327759,-0.004288255,-0.002806323,-0.002392715,-0.001371136,-0.00147465,-0.001334285,-0.001790925,-0.002507775,-0.002593058,-0.001839594,-0.002510091,-0.002766251,-0.001877793
530.9767456,-0.003969793,-0.002525893,-0.002187747,-0.001178799,-0.001238223,-0.001117663,-0.001682431,-0.002187386,-0.002304663,-0.001688465,-0.002321039,-0.002476477,-0.00179541
530.0713501,-0.003835262,-0.002256819,-0.001892071,-0.000936528,-0.00102336,-0.000983329,-0.001436725,-0.002003038,-0.002075282,-0.001411389,-0.002050137,-0.002224885,-0.001606305
529.0148926,-0.004321985,-0.002799019,-0.002442655,-0.001336711,-0.001547653,-0.001287005,-0.001802061,-0.002481985,-0.002428395,-0.001663401,-0.002472616,-0.002668909,-0.001935884
527.9581299,-0.004460978,-0.002934335,-0.002621002,-0.001465879,-0.002034421,-0.001448077,-0.001924184,-0.002536856,-0.00257942,-0.001909752,-0.002682339,-0.002819954,-0.002100322
527.052124,-0.004281129,-0.002731165,-0.002443891,-0.001408447,-0.002347043,-0.001337073,-0.001841553,-0.002492744,-0.002362594,-0.001825726,-0.002497891,-0.002631243,-0.001978971
525.9949341,-0.004249242,-0.002662271,-0.002515238,-0.001317356,-0.002499384,-0.001318853,-0.001835521,-0.002504223,-0.002414237,-0.001789223,-0.002472822,-0.002673026,-0.001931915
524.937439,-0.00428482,-0.002698135,-0.002502524,-0.001405506,-0.002547716,-0.001333408,-0.00193408,-0.002513076,-0.002481162,-0.001757719,-0.002575972,-0.002691292,-0.00197057
524.0308838,-0.004204432,-0.002534077,-0.00237248,-0.001224387,-0.002381748,-0.001175081,-0.001638851,-0.002288904,-0.002338341,-0.001650095,-0.002316456,-0.002477919,-0.001813094
522.9729614,-0.004315936,-0.00252615,-0.002331183,-0.001195785,-0.002450789,-0.001053832,-0.001731112,-0.002301212,-0.002368721,-0.001612288,-0.002358423,-0.002546018,-0.001788244
522.065979,-0.004270979,-0.002387978,-0.002171469,-0.001116578,-0.002329896,-0.001090345,-0.00160682,-0.002283136,-0.002200006,-0.001550903,-0.002300903,-0.002488317,-0.001674438
521.0075684,-0.004330801,-0.002475757,-0.002359093,-0.001169299,-0.002367074,-0.001137698,-0.001687846,-0.002330926,-0.002242655,-0.001669951,-0.002307186,-0.002549878,-0.001747046
519.9489746,-0.00417823,-0.002419745,-0.002092646,-0.000977492,-0.002302088,-0.000908682,-0.001508548,-0.002103362,-0.00217219,-0.001498075,-0.002098365,-0.002333501,-0.001531042
519.0413818,-0.004334236,-0.002659802,-0.002283548,-0.001130056,-0.002365581,-0.001056105,-0.001585723,-0.002333089,-0.002348228,-0.001618993,-0.002386691,-0.002505201,-0.001737661
517.9822998,-0.004478707,-0.002825715,-0.00245882,-0.001111311,-0.002490119,-0.001022585,-0.001710382,-0.002353377,-0.002374385,-0.001580875,-0.002480853,-0.002635514,-0.001759627
517.0743408,-0.004429103,-0.00274948,-0.002348073,-0.001194236,-0.002388854,-0.00105595,-0.00162606,-0.002453054,-0.002405844,-0.001610895,-0.002448112,-0.002610195,-0.001697696
516.0147705,-0.004287332,-0.002743975,-0.002127525,-0.000997947,-0.002248372,-0.000941022,-0.00155632,-0.0023266,-0.002311203,-0.001526192,-0.002370472,-0.002410169,-0.001577522
514.9550171,-0.004350177,-0.002663043,-0.002090378,-0.001114255,-0.002226533,-0.000912711,-0.001479965,-0.002318155,-0.002367331,-0.001446478,-0.00238422,-0.002451047,-0.001652054
514.0464478,-0.004344128,-0.002591823,-0.002280921,-0.001040611,-0.002126958,-0.0009279,-0.001491574,-0.002188107,-0.00219707,-0.001440699,-0.002264905,-0.002301418,-0.001497817
512.9862061,-0.004174692,-0.0024095,-0.00208909,-0.000915295,-0.002034163,-0.000875667,-0.001450657,-0.002161372,-0.002119849,-0.001388166,-0.00213618,-0.002232714,-0.001464228
511.9257202,-0.004643927,-0.002849632,-0.002339371,-0.001245399,-0.002304766,-0.001088692,-0.001643596,-0.002450223,-0.002575354,-0.00158366,-0.002582508,-0.002565421,-0.001797988
511.016571,-0.004486906,-0.002673849,-0.002190837,-0.001049752,-0.002157663,-0.000931671,-0.001495082,-0.002289677,-0.002315683,-0.001497352,-0.002302294,-0.002297401,-0.001673045
509.9556274,-0.004509605,-0.00271038,-0.00236867,-0.001094321,-0.002190116,-0.000989838,-0.001624873,-0.002355643,-0.002403579,-0.001458139,-0.002446259,-0.002369803,-0.001722037
509.0460815,-0.004487982,-0.002753904,-0.002342615,-0.001092204,-0.002192795,-0.000969589,-0.00161791,-0.002354407,-0.002445075,-0.001402461,-0.002383139,-0.002442346,-0.001752202
507.9847107,-0.004491876,-0.002829264,-0.002457276,-0.001115804,-0.002279634,-0.000996243,-0.001599599,-0.002268613,-0.002396062,-0.001430172,-0.002359814,-0.002381336,-0.001723996
507.0747986,-0.004407425,-0.002602065,-0.002263771,-0.000835985,-0.002132162,-0.000686781,-0.001329124,-0.002092182,-0.002221383,-0.001260059,-0.002191301,-0.002291016,-0.001454063
506.01297,-0.004490441,-0.002655428,-0.00227778,-0.000861045,-0.002123146,-0.000565654,-0.001355343,-0.002191919,-0.002251359,-0.001256033,-0.002181617,-0.002352605,-0.00146237
504.9509277,-0.004671023,-0.002748502,-0.002269076,-0.001016697,-0.002178217,-0.000611824,-0.001461184,-0.002260578,-0.002313263,-0.001409428,-0.002351266,-0.002510091,-0.001675263
504.0404053,-0.004611811,-0.002806015,-0.002236165,-0.000874841,-0.002162042,-0.000600708,-0.001426715,-0.002410581,-0.002272939,-0.001406125,-0.002389523,-0.002344829,-0.00158495
502.9779053,-0.004574722,-0.002662323,-0.00232315,-0.001050992,-0.002261608,-0.000671739,-0.00148466,-0.002235341,-0.002414546,-0.001404938,-0.002382366,-0.002474315,-0.001546828
502.0670166,-0.004427822,-0.002555282,-0.00215962,-0.000939989,-0.002202891,-0.000506138,-0.00119816,-0.002161526,-0.002199697,-0.001300478,-0.002205415,-0.002310791,-0.001452515
501.0040894,-0.004379494,-0.002373768,-0.00182222,-0.000725857,-0.001971137,-0.000345337,-0.001047635,-0.001998451,-0.00200546,-0.001051767,-0.002028907,-0.002143032,-0.001289535
499.940918,-0.004642186,-0.002635102,-0.00212768,-0.00100554,-0.002121446,-0.000679596,-0.001352401,-0.002248166,-0.002189704,-0.001321072,-0.002216798,-0.002392715,-0.001480171
499.0294495,-0.004520006,-0.002469116,-0.002024784,-0.000675409,-0.001923308,-0.00051467,-0.001118592,-0.002064668,-0.002134274,-0.001050424,-0.001956294,-0.002195216,-0.001282256
497.9658203,-0.004732633,-0.002647401,-0.002227769,-0.000981883,-0.002195576,-0.000710248,-0.001411647,-0.002268819,-0.002248475,-0.001364014,-0.002244715,-0.002333913,-0.001550594
497.0539856,-0.00471855,-0.002648018,-0.002240131,-0.000858875,-0.002178784,-0.000687505,-0.001339756,-0.002296011,-0.002181823,-0.001327989,-0.002191043,-0.002237298,-0.001309356
495.9899292,-0.004661445,-0.002527797,-0.002182183,-0.00080343,-0.001986186,-0.00071247,-0.001264189,-0.002157302,-0.002125825,-0.00128365,-0.002293745,-0.002304817,-0.001317769
494.9256592,-0.004439609,-0.002375312,-0.001909752,-0.000710713,-0.001896041,-0.000503139,-0.001068551,-0.00204385,-0.002000925,-0.00113429,-0.001969024,-0.002014478,-0.001249735
494.0132446,-0.004152284,-0.002111193,-0.001676552,-0.000387444,-0.001603726,-0.000269907,-0.000860063,-0.001619251,-0.001735289,-0.000889721,-0.001747304,-0.001842738,-0.001025529
492.9485168,-0.0039898,-0.001812012,-0.001365717,-0.000151044,-0.001454269,-5.10E-05,-0.000750872,-0.001502873,-0.001455095,-0.000693656,-0.001451844,-0.001601714,-0.000829319
492.0357361,-0.004419777,-0.002394208,-0.001913875,-0.000615133,-0.001966396,-0.000493055,-0.001204201,-0.002052507,-0.002039419,-0.001034826,-0.002022723,-0.002152614,-0.001261608
490.9705811,-0.004717014,-0.002657383,-0.002273299,-0.000846009,-0.002192074,-0.000600605,-0.001329124,-0.002157251,-0.00219537,-0.00124101,-0.00231249,-0.002356518,-0.001428211
490.0574341,-0.004417983,-0.002254913,-0.001765454,-0.000584216,-0.00187037,-0.000263543,-0.001048564,-0.001855059,-0.001881762,-0.000904962,-0.001816858,-0.001890319,-0.001155254
488.9918518,-0.004284974,-0.001968148,-0.001572466,-0.000349579,-0.001643132,-9.96E-05,-0.00091235,-0.001636839,-0.001714869,-0.000715313,-0.001689239,-0.001736114,-0.00098927
487.9260559,-0.004575849,-0.002282518,-0.001863513,-0.000531424,-0.001849595,-0.000251901,-0.001001305,-0.001915318,-0.001923205,-0.000894939,-0.001945574,-0.00195784,-0.00117503
487.0123291,-0.004739189,-0.00257062,-0.002108772,-0.000714227,-0.002063585,-0.000490366,-0.001224852,-0.002101147,-0.002208196,-0.001092824,-0.002143444,-0.002222413,-0.001314827
485.9460754,-0.004503405,-0.00216369,-0.001749779,-0.000387651,-0.00172281,-0.000189703,-0.000970674,-0.001774426,-0.001809692,-0.000883469,-0.001713579,-0.001861142,-0.001020778
485.0319824,-0.004105052,-0.001757462,-0.001295316,-2.27E-05,-0.001429759,0.000174558,-0.00065711,-0.001377845,-0.001477901,-0.000458457,-0.001314517,-0.001475992,-0.000692984
483.965332,-0.004885215,-0.002468962,-0.00210192,-0.000626144,-0.002101508,-0.000401668,-0.001207505,-0.002045551,-0.002101044,-0.001088951,-0.002059206,-0.002169305,-0.001186337
483.0508728,-0.00486141,-0.002402137,-0.002061422,-0.000677063,-0.001994483,-0.000420909,-0.001158094,-0.002015612,-0.002136695,-0.001029351,-0.002014066,-0.002168326,-0.001119315
481.9837952,-0.004689819,-0.002302963,-0.001923205,-0.000531424,-0.001791595,-0.000360959,-0.00105063,-0.001870267,-0.001998194,-0.000967471,-0.001893051,-0.001969282,-0.001094115
481.0689697,-0.004564835,-0.00210666,-0.001665051,-0.000380357,-0.001783706,-0.000276478,-0.000973102,-0.00179804,-0.001887071,-0.000864559,-0.001687073,-0.00186939,-0.001022172
480.0014648,-0.004633581,-0.00204014,-0.001689909,-0.000336698,-0.001639986,-0.00024326,-0.000877992,-0.001744622,-0.00178051,-0.0008025,-0.001694086,-0.001914339,-0.001024496
478.9337463,-0.004378161,-0.001704349,-0.001456953,-0.000158549,-0.001473464,8.88E-05,-0.000779296,-0.001594957,-0.001589128,-0.000627643,-0.001418097,-0.001611514,-0.000755058
478.0183716,-0.004461797,-0.001929905,-0.001648186,-0.000259921,-0.001679388,-0.000137899,-0.000894112,-0.001673251,-0.00175937,-0.00079728,-0.001592326,-0.001680678,-0.000920357
476.9502258,-0.004714658,-0.001869081,-0.001712084,-0.000462284,-0.001625595,-0.000139555,-0.000978164,-0.00166959,-0.00180201,-0.00078188,-0.001726987,-0.001787676,-0.000868692
476.0344849,-0.004638395,-0.001958974,-0.001546673,-0.000401513,-0.001629515,-7.17E-05,-0.000852055,-0.001627401,-0.00176401,-0.000838413,-0.001626885,-0.001774477,-0.000856756
474.9659119,-0.004406144,-0.001853873,-0.001454218,-0.000201036,-0.001495031,9.02E-05,-0.000650803,-0.001557507,-0.001561375,-0.000676856,-0.001415156,-0.001561737,-0.000786325
474.0498352,-0.004539424,-0.001775972,-0.001335885,-0.000239845,-0.001584176,5.06E-05,-0.000770201,-0.00158237,-0.001553999,-0.000590523,-0.001465569,-0.001679595,-0.000929295
472.980835,-0.004552027,-0.001820467,-0.001411956,-0.000145144,-0.00147852,3.73E-05,-0.000720326,-0.001569939,-0.001606924,-0.000657833,-0.001440234,-0.001618478,-0.000830249
472.0643921,-0.004500843,-0.001649476,-0.001561272,-0.00024978,-0.00148982,2.78E-05,-0.00074374,-0.001509941,-0.00165649,-0.000543524,-0.001507361,-0.001601662,-0.000689934
470.9949951,-0.004651303,-0.001677016,-0.001224697,-7.27E-05,-0.001158817,0.000218895,-0.000542076,-0.001393688,-0.001439202,-0.000443924,-0.001372065,-0.001461493,-0.000404202
469.9253845,-0.004630712,-0.001631682,-0.001473206,-0.000156685,-0.001251025,0.000215632,-0.000575633,-0.001434403,-0.001536097,-0.000385892,-0.00138058,-0.0015817,-0.000550659
469.0083923,-0.004578052,-0.001558435,-0.001283805,0.000150294,-0.001132225,0.000380406,-0.000474283,-0.001290257,-0.001553431,-0.000265302,-0.001309872,-0.00151835,-0.000529666
467.9383545,-0.004462156,-0.00154234,-0.00122733,0.000124452,-0.001152414,0.000403957,-0.000511775,-0.001092514,-0.001334285,-0.00038734,-0.001200329,-0.001409531,-0.000481057
467.0210266,-0.004672098,-0.001707598,-0.001377174,0.000187714,-0.001216592,0.000406056,-0.000523926,-0.00141949,-0.001526089,-0.000396806,-0.001280295,-0.001445755,-0.000619785
465.9505615,-0.004633222,-0.001500087,-0.001128868,0.000282585,-0.001166304,0.000430049,-0.000380874,-0.001300684,-0.001364272,-0.000236689,-0.001168008,-0.001324066,-0.000336439
465.0328674,-0.004693456,-0.001727554,-0.001282824,0.000151123,-0.001357924,0.000387556,-0.000371046,-0.001186234,-0.001526502,-0.000351027,-0.001344298,-0.001487343,-0.00038015
463.9620361,-0.004880096,-0.002038182,-0.001328402,-3.12E-05,-0.001629722,0.000204081,-0.000736039,-0.00148012,-0.001649269,-0.000612703,-0.001548788,-0.001616879,-0.000701202
463.0439758,-0.004531431,-0.001440647,-0.00112262,0.00026334,-0.001165633,0.000602422,-0.000400375,-0.001096852,-0.001258304,-0.000131843,-0.000936631,-0.001225162,-0.000195964
461.9727173,-0.004575337,-0.001410563,-0.001011067,0.000285616,-0.001367368,0.000619764,-0.000400633,-0.001005075,-0.001195837,-8.37E-05,-0.001047686,-0.001285508,-0.000202485
461.0543518,-0.004534198,-0.00101835,-0.000773973,0.000613024,-0.000932911,0.000755025,-0.000129514,-0.000790717,-0.001075627,0.000101019,-0.000802603,-0.001057293,-4.27E-05
459.982666,-0.004788091,-0.001571847,-0.001051147,0.000359291,-0.001374181,0.000635266,-0.000302967,-0.001111156,-0.001306517,7.41E-05,-0.001128404,-0.001266202,-0.000198034
459.0639343,-0.004955651,-0.001573498,-0.001166923,0.000342632,-0.001454166,0.000554961,-0.000454216,-0.001119832,-0.001505143,-0.00013588,-0.001193875,-0.001440492,-0.000321126
457.9918823,-0.004872826,-0.001576645,-0.001282773,0.000347477,-0.001417581,0.000697177,-0.000331059,-0.001265015,-0.00135973,6.33E-05,-0.001066124,-0.001345589,-0.000295517
457.0727844,-0.004784097,-0.001463041,-0.001005334,0.000495066,-0.001291341,0.000823644,-0.000315642,-0.001105218,-0.001179935,7.47E-05,-0.001086937,-0.001018711,-0.000227064
456.0003357,-0.004653096,-0.001214062,-0.000816814,0.000676668,-0.001131192,0.001037609,-5.93E-05,-0.000963235,-0.001089984,0.00028875,-0.000941487,-0.001025064,3.78E-05
454.9276428,-0.004721418,-0.001126699,-0.000847766,0.000872768,-0.001045775,0.00096932,-8.01E-05,-0.000890237,-0.001037873,0.000414917,-0.000941952,-0.001031469,0.000137502
454.0080566,-0.004815382,-0.001223613,-0.000973825,0.000780827,-0.00108642,0.000856116,-5.64E-05,-0.000885019,-0.001040972,0.000343565,-0.000687866,-0.000908527,-2.24E-05
452.934967,-0.00484175,-0.001353743,-0.000960859,0.000637858,-0.001235538,0.000899407,-6.73E-05,-0.000987927,-0.001164393,0.000181835,-0.000923922,-0.001058377,-0.00012703
452.0150146,-0.004911016,-0.001178541,-0.000942417,0.000677705,-0.001120916,0.000919355,3.02E-05,-0.000938646,-0.001114306,0.000368203,-0.000793456,-0.001019435,-1.73E-05
450.9415588,-0.004841597,-0.001187111,-0.000784826,0.000714004,-0.000991801,0.000987014,1.92E-05,-0.0009419,-0.001019848,0.000352296,-0.000801311,-0.000973515,0.000113369
450.0212708,-0.004831357,-0.001035498,-0.000686419,0.000859072,-0.000856033,0.000996121,4.80E-05,-0.000775524,-0.000967058,0.000290952,-0.000808339,-0.000932705,0.000199445
448.9473877,-0.004911425,-0.001098814,-0.000829577,0.000814618,-0.000640412,0.001062442,0.000106896,-0.000874531,-0.000974496,0.000290874,-0.000768134,-0.00086678,0.00016407
448.0267639,-0.004810518,-0.000847663,-0.000526564,0.00092693,-0.000327696,0.001233923,0.000368747,-0.000544403,-0.00073821,0.000541898,-0.000567154,-0.000665381,0.000294579
446.9525146,-0.004995112,-0.00122986,-0.00081144,0.000734981,-0.000442787,0.001078816,0.000136881,-0.000772681,-0.000894577,0.000253187,-0.000712263,-0.000879232,0.000209701
446.0315247,-0.005064711,-0.00109804,-0.000832729,0.000666428,-0.000303226,0.001134977,0.00020131,-0.000786531,-0.000948461,0.000239589,-0.00071092,-0.000822136,0.000128025
444.9568787,-0.004778209,-0.001021965,-0.000651268,0.000797969,-0.000218578,0.001220217,0.000391702,-0.000675822,-0.000762914,0.000338695,-0.000547557,-0.00081671,0.000257953
444.0355835,-0.004812157,-0.000927074,-0.000562345,0.000932507,-0.000159532,0.001266296,0.000316519,-0.000629556,-0.000684403,0.000455236,-0.000368718,-0.000653595,0.000463632
442.9605408,-0.004650023,-0.000596779,-0.000183182,0.001097812,9.13E-05,0.001589924,0.000579352,-0.000315384,-0.000553555,0.000781216,-0.000330593,-0.000402082,0.000678146
442.0389099,-0.004856188,-0.000795937,-0.000343992,0.001004241,-9.71E-05,0.001428612,0.000337788,-0.000519324,-0.000513429,0.000625052,-0.000292051,-0.000594504,0.000403543
440.9634705,-0.004848508,-0.000859133,-0.000409633,0.001042825,-0.000177593,0.001515391,0.000456143,-0.000370425,-0.000516687,0.000678405,-0.000370063,-0.000582561,0.000663965
440.0415039,-0.005097562,-0.000919479,-0.000535509,0.000977285,-0.00056736,0.001519625,0.000253627,-0.000443045,-0.000691278,0.000660439,-0.000496468,-0.000639637,0.000435284
438.9656982,-0.004887416,-0.000626506,-0.000267734,0.001180839,-0.00038015,0.001661481,0.000571835,-0.00026168,-0.000380461,0.000799239,-0.000171745,-0.00036158,0.000795401
438.043396,-0.004942957,-0.000606033,-0.000241449,0.001170093,-0.0005307,0.001703267,0.000562063,-0.000203985,-0.000383512,0.000835496,-0.000138985,-0.000368046,0.0007411
436.9671936,-0.005033342,-0.000596986,-0.000238758,0.001270476,-0.000537681,0.001646644,0.000546952,-0.00013117,-0.000278961,0.000886385,-0.000232549,-0.000407254,0.000698654
436.0445862,-0.00501369,-0.000518445,-0.000123096,0.001255522,-0.000522168,0.001768371,0.000600141,-6.48E-05,-0.000393082,0.000792549,-0.000144264,-0.000326093,0.000789255
434.9679871,-0.004771859,-0.000350613,0.000159953,0.001415523,-0.000301001,0.001928717,0.000791563,0.000104954,-0.000163465,0.001056577,7.18E-05,-8.73E-05,0.001011169
434.0450439,-0.004795977,-0.000299346,4.69E-05,0.00158135,-0.000275805,0.002047975,0.000971317,7.28E-05,-7.04E-06,0.001148005,0.000124219,-9.15E-05,0.000962808
432.9680786,-0.005073666,-0.000502467,-0.000202329,0.001237116,-0.000537681,0.001901651,0.000761274,-0.000106534,-0.000215266,0.000835963,-0.000180336,-0.000327851,0.000860421
432.0447998,-0.004993679,-0.0002965,2.09E-05,0.001376153,-0.000338767,0.002067169,0.000769935,5.64E-05,-0.000233066,0.001074379,7.01E-05,-0.00015565,0.00095723
430.9674683,-0.004544137,8.37E-05,0.000396469,0.001775025,0.000120645,0.002446657,0.001178892,0.000373877,0.000228426,0.001424301,0.0004393,0.000211359,0.001489259
430.0438843,-0.004790191,6.74E-05,0.000397868,0.001802863,9.15E-05,0.002473107,0.001081723,0.000383566,0.000152909,0.001313679,0.000498254,0.000179686,0.001406927
428.966156,-0.004845795,0.000174429,0.000503152,0.002024724,0.000107,0.002528484,0.0012035,0.000513933,0.000279348,0.001457493,0.000543557,0.000321856,0.001403862
428.0422363,-0.004709844,0.000340871,0.000617871,0.001998536,0.000252125,0.002625327,0.001359041,0.000649524,0.00033613,0.001458246,0.0007118,0.000422768,0.001455935
426.9641418,-0.00461386,0.000430334,0.00083228,0.002109203,0.000342658,0.002676192,0.001508559,0.000729535,0.000496699,0.00174854,0.000930691,0.00065445,0.001692586
426.0398865,-0.004714914,0.000393179,0.000705681,0.002138987,0.000336441,0.002803445,0.001441053,0.000747505,0.00054151,0.001789555,0.00082992,0.000605143,0.001798055
424.9614258,-0.004806781,0.000426344,0.000695051,0.002132874,0.000393438,0.002840703,0.001513962,0.000707963,0.000505148,0.001818954,0.000915697,0.000582177,0.001787216
424.0368652,-0.004836067,0.000471847,0.00068442,0.002133863,0.000299345,0.002891489,0.001531549,0.000794027,0.000540862,0.001669666,0.000930172,0.000619893,0.001782797
422.9580078,-0.004845129,0.000423649,0.000797113,0.002154206,0.000339368,0.002869783,0.001560021,0.000761948,0.000606206,0.001659818,0.000915152,0.000640503,0.001849915
422.0331421,-0.004672098,0.0008266,0.001129241,0.002501719,0.000612816,0.003229161,0.001897413,0.001056448,0.000893908,0.002075466,0.001217024,0.00102243,0.002103142
420.9539185,-0.004936559,0.000693625,0.00096452,0.002463683,0.000633166,0.00323482,0.001783862,0.000943973,0.000746364,0.001915275,0.001113955,0.000922286,0.00197534
420.028717,-0.005000537,0.00063314,0.000973211,0.002575874,0.000638532,0.003249582,0.001829118,0.001033146,0.000858683,0.002027247,0.001126438,0.000905892,0.002028209
418.9491272,-0.005047261,0.000555583,0.000952482,0.002519423,0.000592883,0.003100454,0.001632093,0.000956867,0.000797735,0.001822853,0.001031434,0.000965921,0.00182969
418.0236206,-0.005006167,0.000898006,0.001180346,0.002850839,0.000938318,0.003428478,0.0019672,0.001236883,0.0009777,0.002172703,0.001371947,0.001264842,0.002083451
416.9436646,-0.004895351,0.000918291,0.001270372,0.003086818,0.000993189,0.003423416,0.002041707,0.001339099,0.00102422,0.00229947,0.001429807,0.001344681,0.00226676
416.0178528,-0.004944799,0.000998689,0.001324168,0.003055717,0.001036286,0.003610293,0.002059158,0.001342915,0.00120716,0.00235316,0.001553786,0.001562749,0.002313835
414.9375305,-0.004923762,0.001165914,0.00157605,0.003194842,0.001199684,0.003709831,0.002272094,0.00160068,0.001562437,0.002496824,0.001770217,0.001599303,0.002418231
414.0113831,-0.004744668,0.00139428,0.001750074,0.003317031,0.001487259,0.003912999,0.002382467,0.001743914,0.001711609,0.002666789,0.001943668,0.001813157,0.002641787
412.9307251,-0.004894737,0.001555163,0.001765226,0.003414598,0.001559995,0.004002497,0.002606993,0.001833693,0.001730165,0.002681323,0.002135189,0.001939794,0.002719352
412.0042725,-0.004752554,0.001700539,0.001929341,0.003338733,0.001696744,0.00406792,0.002657986,0.001880305,0.001693626,0.002805165,0.002125331,0.002095365,0.002838358
410.9232178,-0.004646335,0.001934203,0.002198511,0.00355984,0.001767747,0.004333399,0.002782446,0.00208405,0.002002775,0.002969751,0.002333224,0.002267306,0.003073679
409.99646,-0.004915008,0.001821969,0.001880695,0.003306388,0.001534562,0.004134451,0.002631109,0.001994089,0.001821657,0.002799485,0.002105249,0.002082697,0.002882629
409.0695801,-0.004952272,0.001845105,0.002112246,0.003415902,0.001673148,0.004161396,0.002730631,0.002102179,0.001931837,0.002857041,0.002197861,0.002256065,0.002983382
407.9880066,-0.004744617,0.002175408,0.002548351,0.00373406,0.002126891,0.004527207,0.003094379,0.002452957,0.002199422,0.003161674,0.002650642,0.002805425,0.003306102
407.060791,-0.004721675,0.002138415,0.002519944,0.003820622,0.002212066,0.004692448,0.003138128,0.002495653,0.00219643,0.003251772,0.002750064,0.002766998,0.003410162
405.9788818,-0.004561556,0.002562073,0.00272537,0.004094468,0.00239772,0.004877123,0.003319744,0.002764757,0.002515388,0.003510934,0.002932664,0.00311362,0.003696621
405.0513611,-0.004622926,0.002673978,0.00287872,0.004241115,0.002645381,0.0049498,0.003488622,0.00279886,0.0025665,0.003654825,0.002991958,0.003194164,0.003700798
403.9690857,-0.004954934,0.002389937,0.002648818,0.004096951,0.002328123,0.004823748,0.00343667,0.00279318,0.002490003,0.003431818,0.002871424,0.002949917,0.00357764
403.0412598,-0.004905641,0.002650876,0.002886199,0.004260276,0.002543169,0.005031785,0.003450212,0.002932925,0.002537519,0.003757742,0.003044065,0.003187176,0.003808557
401.9586487,-0.004898883,0.002783801,0.002943115,0.004323752,0.002717711,0.005203662,0.003434061,0.00299777,0.002646084,0.003893828,0.003204126,0.003240584,0.003801323
401.0305176,-0.004790139,0.003056265,0.003196277,0.004464644,0.00288289,0.00542158,0.003737898,0.003218469,0.002871946,0.003987474,0.003561563,0.003535073,0.004153503
399.9475403,-0.004683059,0.003194138,0.003440845,0.004733898,0.003075634,0.005603812,0.003887245,0.003288182,0.002944184,0.004046651,0.003633237,0.003702234,0.004181494
399.0191345,-0.004675171,0.00330858,0.003435105,0.004819612,0.002939414,0.005721696,0.003988546,0.003422868,0.002985702,0.004134085,0.003654277,0.003730927,0.004255493
397.935791,-0.004768992,0.003615931,0.003676466,0.005055879,0.003159118,0.005741893,0.004087126,0.003620838,0.003175076,0.004316013,0.003946487,0.004046521,0.004506439
397.0070801,-0.004699294,0.003695733,0.003870295,0.00520733,0.003366516,0.006253532,0.004186565,0.003735131,0.003418276,0.004500737,0.004127447,0.00415677,0.004666229
395.9234009,-0.004809034,0.003897145,0.004127657,0.005446612,0.003622665,0.006274436,0.004280955,0.004006964,0.003424068,0.004669002,0.004204678,0.004147283,0.004742849
394.9943848,-0.004573083,0.00419187,0.004216309,0.005607352,0.004341269,0.006702597,0.004685435,0.004339596,0.003716045,0.004918827,0.004440531,0.004517712,0.004890526
394.0652161,-0.005243775,0.003696699,0.00381284,0.0051837,0.004213852,0.006324496,0.0043625,0.003857941,0.003372438,0.004572148,0.00401117,0.004146786,0.004765382
392.9810181,-0.00473207,0.004430175,0.004493387,0.005909066,0.005199707,0.006958171,0.004857411,0.0044421,0.003983739,0.005168611,0.004757975,0.004788099,0.005195908
392.0515747,-0.004659191,0.004795532,0.004902543,0.006057298,0.005445642,0.007229345,0.005098647,0.004694358,0.004187427,0.005480611,0.005049332,0.005016073,0.005402551
390.967041,-0.005304998,0.004200417,0.004372541,0.005667746,0.004807441,0.006617956,0.004621698,0.004210611,0.003788058,0.004950244,0.004547872,0.004462839,0.005026626
390.0372925,-0.004907944,0.004802102,0.004799432,0.006209204,0.005512988,0.007179997,0.005158342,0.004705113,0.004258603,0.005367457,0.004974045,0.005010076,0.005660901
388.9524231,-0.004764588,0.005164525,0.005100429,0.006490238,0.005751939,0.007358388,0.005344578,0.005007903,0.00469271,0.005608925,0.005267957,0.005446665,0.005842184
388.0223999,-0.004633939,0.005507875,0.005473769,0.006673865,0.005687757,0.007604758,0.005591671,0.00525111,0.004791318,0.005953808,0.005620988,0.005747428,0.006195865
386.9371948,-0.004869396,0.005539782,0.005421685,0.006866985,0.005337188,0.007660188,0.005654423,0.005285015,0.004782786,0.006144324,0.005555067,0.005796508,0.006311153
386.0068665,-0.004763871,0.005741657,0.005625603,0.007070346,0.005255171,0.007870696,0.005816551,0.005509894,0.004905867,0.006354676,0.005882197,0.006000629,0.006336342
385.0763855,-0.004790959,0.006052626,0.005847064,0.007301654,0.005286377,0.008063003,0.006012414,0.005627596,0.005234079,0.006509708,0.006061682,0.006111376,0.006539271
383.9906921,-0.004893764,0.00611303,0.005976667,0.007297047,0.005214666,0.008351836,0.006133087,0.00578717,0.005286115,0.006634936,0.006275066,0.006306084,0.006680305
383.0599365,-0.004957084,0.006302853,0.006187358,0.007534401,0.005426088,0.008385246,0.0063531,0.005949846,0.005384702,0.006760567,0.006393711,0.006382573,0.006745528
381.973877,-0.004732531,0.006653283,0.006411785,0.007839831,0.005703651,0.008780176,0.006621662,0.006151098,0.005733368,0.007007415,0.006692397,0.00684784,0.007208236
381.0428467,-0.004814819,0.006913877,0.006690347,0.007980576,0.006061498,0.009052861,0.006851758,0.006434195,0.006100691,0.007200867,0.007003601,0.006956935,0.007299258
379.9564819,-0.004953194,0.006951174,0.006714585,0.008171376,0.005993385,0.009216765,0.006853783,0.006479648,0.006192163,0.007310446,0.007128576,0.007128971,0.007521574
379.0251465,-0.00464362,0.007615111,0.007118577,0.008736435,0.00659672,0.009717586,0.007526684,0.007016702,0.006615985,0.007858386,0.007573569,0.00762615,0.007974907
377.938446,-0.004661035,0.007758736,0.007453338,0.008935734,0.006716241,0.01014595,0.007485993,0.007472746,0.006690531,0.007908866,0.007868587,0.007974933,0.008203769
377.0068359,-0.005133225,0.007457261,0.006921268,0.008565003,0.006379026,0.009800397,0.007362863,0.00678757,0.006472291,0.007821117,0.007458236,0.007581893,0.008019124
376.0750732,-0.004881632,0.007693017,0.007401305,0.009046887,0.006902016,0.01007314,0.007564982,0.007121971,0.006693607,0.008123873,0.007775733,0.008018835,0.008268219
374.9878845,-0.004951146,0.008055567,0.007688591,0.009403163,0.007155075,0.010463378,0.007974354,0.007493999,0.007099763,0.008291068,0.008175913,0.008208279,0.008720324
374.0558777,-0.004939732,0.008387357,0.007860864,0.009452579,0.007411047,0.010597868,0.007969818,0.007753676,0.007127471,0.008476673,0.008261148,0.008400763,0.00878612
372.9683533,-0.004868014,0.008623724,0.008312493,0.009971683,0.007841069,0.011042077,0.008580211,0.007982026,0.007376528,0.008815256,0.008737914,0.008680948,0.009093699
372.0360413,-0.00477442,0.009023206,0.008628794,0.010307617,0.008306767,0.011202962,0.008879744,0.008248774,0.007891098,0.009254895,0.009289062,0.008835729,0.009662158
370.9482117,-0.005178246,0.00882939,0.008728697,0.010408279,0.008436631,0.0113363,0.008814754,0.008242839,0.007817559,0.009309743,0.009228268,0.009046306,0.009667637
370.015625,-0.005137011,0.009019876,0.008708176,0.010710721,0.008642631,0.011581455,0.008947888,0.008558324,0.007915325,0.009432896,0.00954955,0.009368828,0.009849356
368.9274292,-0.004894737,0.009783346,0.009158545,0.011251681,0.009046729,0.012327529,0.009520416,0.009091293,0.00848079,0.009935318,0.010183288,0.009915772,0.010773793
367.9945984,-0.004913984,0.010044661,0.009567252,0.011682387,0.009336957,0.012540045,0.009843874,0.009452499,0.008887116,0.010306027,0.010459188,0.009995151,0.010907795
367.0615845,-0.005046289,0.010086679,0.009565611,0.011765174,0.009557461,0.012691118,0.009934072,0.009411416,0.009066129,0.010533787,0.010494484,0.010108829,0.011116404
365.9729614,-0.004850146,0.010483214,0.010018621,0.012163484,0.009659034,0.013006838,0.010463617,0.00988717,0.009360523,0.010833637,0.011020225,0.010590361,0.011580631
365.0397034,-0.004833149,0.010657899,0.010430949,0.012315305,0.009913998,0.013382422,0.010397965,0.010224259,0.009618963,0.011076703,0.011258587,0.010794041,0.011716957
363.9507141,-0.004673276,0.011053946,0.010834565,0.012767647,0.010101092,0.013714648,0.010783691,0.010394916,0.00976762,0.011476322,0.011616496,0.011200917,0.012173467
363.0171814,-0.00453512,0.011870696,0.011385511,0.013403673,0.010514585,0.01416147,0.011607669,0.011048132,0.0105144,0.012061271,0.012291418,0.01180853,0.012391875
361.9279175,-0.00526444,0.011124531,0.010756279,0.013193989,0.01019985,0.013865328,0.01090222,0.010285537,0.01006816,0.011681641,0.011732753,0.011319933,0.012074339
360.9941101,-0.005381962,0.011484429,0.010859832,0.013378017,0.010227545,0.014172168,0.01130973,0.010681298,0.01017237,0.011888813,0.011827814,0.011592223,0.012361671
360.0601807,-0.005436877,0.011716424,0.011262998,0.013595562,0.010471731,0.014371809,0.011369434,0.010849799,0.010474595,0.012005942,0.012123395,0.011579993,0.012472187
358.9704285,-0.004976278,0.012630459,0.01209172,0.014331648,0.011248015,0.014951188,0.011814328,0.011568429,0.011207504,0.012791773,0.012938747,0.012281112,0.013104151
358.0362244,-0.004717219,0.013074352,0.012690905,0.014740516,0.011825526,0.015524634,0.012451808,0.012297143,0.011431911,0.013195964,0.013385866,0.01287736,0.013722021
356.946167,-0.005642209,0.012569968,0.012002083,0.014463541,0.011152868,0.015105541,0.012045861,0.011461305,0.011138049,0.012913653,0.012939067,0.01231424,0.013376175
356.0116882,-0.005109279,0.01323674,0.01270623,0.015299096,0.011937103,0.015811978,0.012732033,0.012431696,0.01191792,0.013607768,0.013652964,0.012916693,0.013960616
355.0770874,-0.00509045,0.013539556,0.012894239,0.015508109,0.012204376,0.016153457,0.012925066,0.012497443,0.012010839,0.013818213,0.014070041,0.013380446,0.01421234
353.9865723,-0.004949509,0.014121035,0.013451116,0.015885621,0.012771432,0.016655458,0.013458833,0.013003477,0.012315491,0.014244946,0.01450805,0.013701797,0.014707845
353.0516968,-0.005251038,0.013989192,0.013418891,0.015986321,0.0125632,0.01666455,0.013524922,0.012885946,0.012355786,0.014289807,0.014409297,0.013675483,0.014610493
351.9608765,-0.005147243,0.014496326,0.013882032,0.016541131,0.012915652,0.017308414,0.014065095,0.013396517,0.01302935,0.014814273,0.01504433,0.014161577,0.015119532
351.0257568,-0.005029401,0.014980474,0.014368357,0.016967049,0.013486843,0.017665522,0.014338364,0.014141894,0.013249629,0.015169577,0.015318081,0.01458581,0.015551973
349.9346313,-0.005254159,0.014962039,0.014531951,0.017131733,0.013561295,0.017950563,0.0144834,0.013978847,0.013237967,0.015088603,0.015409102,0.014525554,0.015790662
348.9992371,-0.005060208,0.015283222,0.014823513,0.017574055,0.013975826,0.018153893,0.014796274,0.014320626,0.013632102,0.015633516,0.015805051,0.014980929,0.01599763
348.0637207,-0.004879737,0.01606749,0.015482731,0.018332798,0.014631322,0.018850898,0.015211771,0.01500901,0.014218973,0.01635202,0.016404895,0.015602469,0.016548121
346.9721375,-0.004867297,0.01648711,0.015866853,0.018877881,0.015249305,0.019398175,0.015779952,0.015543173,0.014907599,0.016800705,0.01702024,0.016313182,0.017271187
346.036377,-0.005006372,0.016584534,0.016187282,0.019217666,0.015356241,0.01951055,0.015935352,0.015499846,0.014826995,0.016833156,0.017113019,0.016213723,0.017246971
344.9444885,-0.005069368,0.016954964,0.016495364,0.019685736,0.015997736,0.01992725,0.01631235,0.016074393,0.015236999,0.017204633,0.017661398,0.016639158,0.017796867
344.0084534,-0.005381502,0.017001398,0.016566193,0.019908145,0.016246479,0.020249525,0.016359333,0.016194537,0.015388745,0.017353134,0.017662529,0.016858855,0.017945221
343.0722961,-0.005153485,0.017702056,0.017227283,0.020557517,0.016935585,0.020630777,0.016791664,0.016541695,0.015907263,0.017853424,0.018221375,0.017348554,0.018273722
341.9799805,-0.005023619,0.018243808,0.017645599,0.021334464,0.017288508,0.021194408,0.017423673,0.017151041,0.016383149,0.018389154,0.018628491,0.017884444,0.01900705
341.0435791,-0.005130155,0.018255498,0.017816717,0.021586584,0.017321911,0.021143528,0.017472178,0.01719448,0.016419359,0.018517748,0.018916138,0.018010054,0.019171968
339.9509277,-0.00495995,0.018854495,0.018423669,0.022264466,0.017824646,0.021892205,0.018072575,0.017878428,0.016964089,0.019022385,0.019457974,0.018644676,0.019402236
339.0142822,-0.004850505,0.019431606,0.018958239,0.022849949,0.018152921,0.022246646,0.018591231,0.0181513,0.017459674,0.019576998,0.019930692,0.01899799,0.019971156
338.0774841,-0.00534407,0.019506326,0.018990878,0.022877151,0.017851105,0.022477539,0.018726613,0.018297913,0.01748514,0.019620517,0.020134002,0.019179923,0.020202335
336.984436,-0.005210935,0.020100437,0.019349834,0.023486497,0.018339738,0.022973891,0.019158876,0.018826893,0.017981805,0.020272415,0.020829907,0.019585745,0.020637129
336.0473938,-0.005088147,0.020608408,0.019847959,0.023784898,0.018565023,0.023409203,0.019370971,0.019282283,0.018395772,0.020467365,0.021054422,0.020063782,0.021076649
334.9540405,-0.005197277,0.020986009,0.020298157,0.024378626,0.019055462,0.023968875,0.019895706,0.019630618,0.018943286,0.020976501,0.021504786,0.02049651,0.021625761
334.0167542,-0.004956521,0.021573035,0.020894194,0.024773385,0.019506246,0.024593836,0.020362284,0.020095745,0.019297222,0.021473153,0.022108283,0.021002935,0.021985376
332.9231262,-0.005265053,0.021955125,0.02120634,0.025001761,0.019736771,0.024945389,0.020690093,0.02053814,0.019725744,0.021732535,0.02255355,0.021359805,0.022215422
331.9855652,-0.005237484,0.022494033,0.021589575,0.025242822,0.020088941,0.02545201,0.02101538,0.02085682,0.019898389,0.022129338,0.022937676,0.021751286,0.022589542
331.0479126,-0.005056575,0.02281549,0.022119941,0.025817117,0.020773638,0.025941003,0.021524996,0.021390207,0.020630343,0.022754408,0.02343584,0.022245964,0.023355221
329.9538574,-0.005314255,0.023271671,0.022319945,0.026021278,0.021012526,0.026340324,0.021842496,0.021732591,0.020876566,0.022999274,0.023865951,0.022531984,0.023485977
329.0159607,-0.005263212,0.023949016,0.02295929,0.02617651,0.021594146,0.026788989,0.022426238,0.022083851,0.021283351,0.023335991,0.024306236,0.022943489,0.023955008
328.0779419,-0.005211038,0.024324689,0.023495376,0.026739242,0.021878757,0.027393898,0.022760956,0.022595188,0.021801122,0.023863982,0.025010208,0.023410048,0.024376709
326.983429,-0.005209196,0.024892891,0.024126166,0.027055234,0.022598077,0.027721956,0.023388468,0.023257988,0.022333136,0.024537133,0.02564216,0.024105206,0.024996003
326.045166,-0.005594016,0.024978235,0.024142887,0.026783731,0.022590797,0.028119493,0.023494393,0.023286801,0.022301933,0.024546336,0.025626672,0.024260931,0.025240434
324.9504089,-0.004797411,0.026489479,0.025547404,0.027831675,0.023724886,0.029327862,0.024666244,0.02467397,0.023516117,0.025860524,0.027086392,0.025663195,0.026368709
324.0119019,-0.005457379,0.026446944,0.02540439,0.027691467,0.023605838,0.029390041,0.024772372,0.02465345,0.023574844,0.026021224,0.027201906,0.02550046,0.026303085
323.0732727,-0.005742105,0.026541153,0.025308972,0.027740691,0.023786239,0.02946439,0.024751902,0.024541406,0.023605127,0.02593375,0.027042478,0.025411388,0.026496274
321.9780884,-0.005259734,0.027770575,0.026660787,0.028724572,0.024815785,0.030522218,0.025956668,0.025759678,0.024943883,0.027102236,0.028374035,0.02665743,0.027678113
321.0392151,-0.005070135,0.028491771,0.027219709,0.02921552,0.025465379,0.031074123,0.026516637,0.026444744,0.025281947,0.027675107,0.028875377,0.027343363,0.028100824
319.9437256,-0.005137983,0.029178338,0.027961081,0.02994586,0.026041947,0.031885564,0.027202319,0.027147893,0.025993822,0.02824064,0.030077977,0.028016187,0.028713591
319.0046387,-0.005553331,0.029363617,0.027939353,0.030033147,0.026077926,0.031948306,0.027410991,0.02718967,0.025838189,0.028635113,0.030006297,0.028022373,0.029032795
318.0654297,-0.005508961,0.029551415,0.028503241,0.030227339,0.026547482,0.032451339,0.027802615,0.027629144,0.026369177,0.029007887,0.030603595,0.028576693,0.029383421
316.9695435,-0.005342894,0.030639676,0.029490292,0.031206917,0.027417224,0.033533785,0.02869498,0.028600026,0.027490325,0.029942699,0.031719785,0.029494753,0.030304495
316.0300903,-0.005253033,0.031503771,0.030193927,0.031794034,0.028416095,0.034139097,0.029399874,0.029374918,0.028056888,0.030591428,0.032486904,0.030117843,0.03096536
314.9339294,-0.005338854,0.031691745,0.030557655,0.032206692,0.028750872,0.034881163,0.029980334,0.029905094,0.028490527,0.031328566,0.033170242,0.030587457,0.031580154
313.9942322,-0.005926968,0.031516716,0.030316126,0.032116707,0.028513219,0.034768105,0.029937845,0.029463975,0.028119437,0.030968279,0.033103913,0.030520303,0.03137403
313.0544434,-0.005260245,0.032932673,0.031790439,0.033494137,0.03010805,0.036084134,0.031261884,0.031287696,0.029628756,0.032438342,0.034810256,0.032072533,0.032688867
311.9578857,-0.005255591,0.033699617,0.032882016,0.034372311,0.031061361,0.036944989,0.032356981,0.032426208,0.030608067,0.033251081,0.035920709,0.032912064,0.033663224
311.0178528,-0.005296918,0.034218799,0.033580348,0.035107367,0.031735603,0.037738431,0.03292717,0.032841198,0.031183554,0.034149177,0.037024561,0.033511136,0.034375701
310.0776978,-0.005573418,0.034673523,0.033920169,0.035544708,0.032274216,0.03827649,0.033564854,0.033366427,0.031764735,0.03471794,0.037835799,0.034167044,0.034825906
308.9807434,-0.005666585,0.035419006,0.034561418,0.036194891,0.033053827,0.038901955,0.034043226,0.033964954,0.03237525,0.035350483,0.039050702,0.034768637,0.035580333
308.0403748,-0.005588751,0.036056343,0.035325829,0.036774985,0.033712428,0.039622176,0.034903407,0.034616668,0.032935046,0.036003917,0.040053163,0.035546534,0.036250547
306.9431458,-0.005377309,0.037307423,0.036599502,0.038132273,0.034907281,0.040857423,0.036099914,0.03586214,0.034070801,0.037399419,0.041424651,0.03652747,0.037360176
306.002533,-0.005556908,0.037718974,0.036881551,0.038452569,0.035509732,0.041479357,0.036703292,0.036276408,0.034567583,0.037693847,0.042353157,0.037150897,0.037805241
305.0618286,-0.005670775,0.03847627,0.037804592,0.039181933,0.036217202,0.041998692,0.037306409,0.037146188,0.035186015,0.03856045,0.043316424,0.037927963,0.038539402
303.9642029,-0.005302595,0.039565578,0.03875054,0.04025751,0.037263703,0.04307387,0.03836032,0.038198609,0.036388308,0.039592486,0.04452068,0.038854875,0.039692853
303.0232544,-0.005034365,0.040795174,0.039977375,0.041271873,0.038311943,0.044345476,0.03956195,0.039329614,0.037537239,0.040826455,0.045670822,0.040396634,0.040673915
301.9253845,-0.005594629,0.0413558,0.040675733,0.041996438,0.039073925,0.044777617,0.040252198,0.039985973,0.0381286,0.041438293,0.046555437,0.04056906,0.041286759
300.9842224,-0.005606742,0.042193718,0.041263416,0.042793743,0.040132936,0.045902804,0.040913198,0.040553968,0.038601615,0.042166844,0.047285244,0.041315682,0.041988596
300.0429382,-0.0055565,0.043180279,0.04224427,0.043699533,0.040600207,0.046555985,0.041855518,0.041504592,0.039768931,0.043061893,0.048108373,0.042310465,0.043036886
298.9446716,-0.005290218,0.044753052,0.044050202,0.045297753,0.042341653,0.048059333,0.043317225,0.043045744,0.041403323,0.044503644,0.049691353,0.043871269,0.044438519
298.0031738,-0.005175996,0.04581831,0.044611406,0.046487957,0.043366939,0.049336448,0.044370908,0.044014364,0.042188153,0.045487423,0.050426278,0.044712823,0.045366712
297.0615845,-0.005488104,0.046449583,0.045604602,0.047309373,0.04390214,0.050331105,0.045035396,0.044820979,0.04274958,0.046227932,0.051432963,0.045302149,0.046072274
295.9629211,-0.005948876,0.046874508,0.046244979,0.047919665,0.044730153,0.051050313,0.045638673,0.045153111,0.04355697,0.046975736,0.051836252,0.045929965,0.046874333
295.0210876,-0.005303106,0.047686085,0.047151163,0.048868548,0.04552298,0.051909294,0.046948247,0.046128608,0.044427648,0.047436658,0.052949023,0.046836533,0.04769735
293.9221802,-0.005531249,0.048792511,0.048041001,0.049921893,0.046498328,0.05315201,0.047502525,0.047084603,0.045108479,0.048787154,0.053803302,0.048108488,0.048928346
292.9801331,-0.005613283,0.050808147,0.049659312,0.051750422,0.048015933,0.054242466,0.048794802,0.048691731,0.046516538,0.050179373,0.055318523,0.048904967,0.04995764
292.0379944,-0.005577354,0.053185772,0.051385205,0.053471137,0.049629215,0.056220144,0.050604533,0.050281227,0.048434898,0.051874932,0.057081684,0.050515395,0.051395141
290.9386902,-0.005562838,0.054313656,0.052520595,0.054836504,0.050633647,0.057431132,0.051630348,0.051302202,0.049855281,0.052928817,0.058154777,0.05176089,0.052552439
289.9963379,-0.005747368,0.054496184,0.052833177,0.054945186,0.051145326,0.05779665,0.052235626,0.05182514,0.050038237,0.053312626,0.058514506,0.051883187,0.053390805
289.0538635,-0.005515505,0.056281049,0.054691587,0.056945905,0.052587647,0.059160486,0.053562582,0.053186856,0.051490638,0.054824904,0.05996152,0.053497721,0.054648608
287.9542236,-0.005629893,0.057920508,0.056370612,0.058576595,0.054194104,0.061012805,0.05527604,0.054941956,0.053183697,0.056579188,0.061487239,0.055097561,0.056425612
287.0115356,-0.005129541,0.059881706,0.058252096,0.060648382,0.055939388,0.062851399,0.057084933,0.056862097,0.05523406,0.058253814,0.063051827,0.057109259,0.058263555
286.0687561,-0.00576106,0.059834078,0.058928933,0.06141698,0.056790136,0.063613534,0.05806325,0.05760457,0.055836167,0.05905617,0.063911326,0.058057126,0.058876522
284.9687195,-0.005376031,0.060964815,0.060255893,0.062618226,0.058172386,0.065035544,0.058970623,0.058756713,0.057029288,0.060153663,0.064800896,0.058820792,0.060254913
284.0257263,-0.005453544,0.061667375,0.06121495,0.063748598,0.059752591,0.066167258,0.060273349,0.059970111,0.058291469,0.061307382,0.066064507,0.060032465,0.061309587
282.9254456,-0.005469597,0.064125113,0.063854888,0.066315182,0.061813865,0.068611048,0.06243363,0.062054604,0.060454175,0.063695125,0.068101428,0.062414292,0.063307151
281.9822388,-0.005999175,0.064804561,0.064433046,0.06681519,0.062549278,0.069358349,0.063588001,0.062766708,0.061272834,0.064371616,0.068975993,0.063246988,0.064343967
281.0389404,-0.005512335,0.065786079,0.065439269,0.068281241,0.064215533,0.070332326,0.064760931,0.063930042,0.062661856,0.0655417,0.069746144,0.064247251,0.065708406
279.9382935,-0.005649926,0.06773331,0.06717851,0.069561198,0.065748043,0.072233595,0.066412449,0.065556057,0.06398382,0.066949531,0.071182549,0.065869667,0.066821232
278.9947815,-0.005705317,0.069051884,0.068573877,0.070814371,0.066891581,0.073581472,0.067840092,0.066932984,0.065642796,0.068835199,0.072267711,0.067620173,0.068389222
278.051178,-0.005633828,0.070435636,0.070216618,0.072286882,0.068554662,0.075202145,0.069341801,0.068460278,0.067028455,0.070071347,0.0737902,0.069020569,0.070071198
276.9501648,-0.00535936,0.072433144,0.071925193,0.073937461,0.069917582,0.076920561,0.071119033,0.070452109,0.06882149,0.072043858,0.075529955,0.070917219,0.071582325
276.0063477,-0.005891421,0.073184632,0.072715864,0.075029351,0.070921004,0.078033283,0.071783498,0.070855603,0.069640622,0.073003516,0.075977907,0.071508743,0.072465926
275.062439,-0.005699084,0.07468655,0.073971465,0.076371662,0.072129518,0.079199336,0.073520765,0.072642267,0.071437486,0.074177772,0.077364355,0.073051415,0.073752157
273.9610901,-0.005096385,0.077119678,0.076534554,0.078466833,0.07457146,0.081341751,0.075612083,0.074659251,0.073374748,0.076061666,0.079702094,0.075276054,0.076451018
273.0169678,-0.005295383,0.078137204,0.077510789,0.079588406,0.075852677,0.08306165,0.076903075,0.075860903,0.074619196,0.077291578,0.080486126,0.076469973,0.077224746
272.0727539,-0.005047722,0.080251984,0.079632901,0.081966124,0.07810495,0.084861897,0.078380875,0.078141019,0.076936416,0.079545408,0.082579754,0.078704976,0.079324357
270.9710388,-0.006243385,0.08038304,0.079937808,0.081855625,0.078404255,0.085441209,0.078634761,0.078218341,0.076850235,0.079943471,0.08245144,0.078862637,0.079867609
270.0266113,-0.005911953,0.081446126,0.081119224,0.083161078,0.079438694,0.086194262,0.079454012,0.079124138,0.078022443,0.080657773,0.083597578,0.079949692,0.080741562
268.9246826,-0.005496488,0.083687998,0.083264761,0.085085467,0.082182646,0.088791892,0.081552744,0.081514329,0.08051791,0.08283636,0.085979111,0.082316443,0.083196223
267.980072,-0.005758096,0.084960192,0.084372431,0.086325139,0.083275676,0.090310015,0.082409441,0.082296103,0.081476107,0.084049508,0.08680138,0.083421446,0.083918445
267.0353394,-0.005228583,0.08661522,0.085856639,0.087782614,0.084531628,0.091902323,0.083998658,0.08402165,0.082938589,0.085515499,0.088540725,0.085005969,0.085598744
265.9330444,-0.006328449,0.087103263,0.086081296,0.087993339,0.084906057,0.092646517,0.084581539,0.084665366,0.083466433,0.086107552,0.088709839,0.085433051,0.086270764
264.9881287,-0.006029709,0.088720128,0.087869726,0.08972694,0.086355925,0.094360746,0.086209826,0.08601436,0.085155629,0.087658592,0.090107471,0.087067924,0.087760694
264.0431213,-0.005639194,0.090568073,0.089691073,0.091318101,0.08805909,0.0959538,0.087746784,0.087615609,0.086628392,0.089055665,0.091823131,0.088795803,0.089131869
262.9405212,-0.005829566,0.091669813,0.090650454,0.092224933,0.089013241,0.09707807,0.088874698,0.088956274,0.087739117,0.090295546,0.092826501,0.089911222,0.090473183
261.9953003,-0.005579602,0.093442678,0.092259087,0.093866892,0.090689778,0.098845892,0.090284936,0.090528473,0.089381188,0.091847852,0.094448894,0.091711216,0.092099153
261.0500183,-0.00564134,0.094484128,0.093348116,0.094993919,0.091674514,0.099636897,0.091268748,0.091352731,0.090299755,0.092635885,0.095503636,0.092442207,0.092664048
259.947052,-0.005730814,0.094985932,0.093793064,0.095504604,0.092054605,0.100218184,0.092060588,0.091982394,0.091029041,0.093321577,0.095863052,0.093070246,0.093693964
259.0015564,-0.00613411,0.095461518,0.094327807,0.096183382,0.092479423,0.100889549,0.092741854,0.092803165,0.091657408,0.094127394,0.096718363,0.093940191,0.094475731
258.0559692,-0.006253694,0.095805533,0.094806597,0.096178636,0.09283179,0.101193905,0.092655361,0.093087442,0.091924205,0.094772562,0.097160496,0.094002284,0.094505303
256.9526978,-0.006329775,0.097181477,0.095998675,0.097810902,0.09396147,0.102571085,0.094532043,0.09442354,0.093231671,0.095791332,0.098480143,0.095473737,0.09602651
256.0069275,-0.006084286,0.098516159,0.097245231,0.099059388,0.095064417,0.104053423,0.095578015,0.09557195,0.09438201,0.097078331,0.09996713,0.096986182,0.09735243
255.0610504,-0.005969047,0.099520996,0.098188065,0.09976723,0.096021637,0.104587689,0.096410371,0.096523896,0.095267415,0.097912595,0.100966394,0.097793877,0.098141886
253.957428,-0.00580193,0.100821272,0.099497333,0.101245932,0.097313397,0.105775118,0.097802043,0.097658299,0.096635602,0.099203013,0.102521852,0.098957062,0.099354297
253.0113831,-0.005748542,0.102106586,0.100611769,0.102302849,0.098382562,0.107036747,0.098752491,0.099047095,0.097646274,0.100214109,0.103954062,0.100014843,0.100405991
252.0652313,-0.006090004,0.102534011,0.101052329,0.102839522,0.098793209,0.107529335,0.0991643,0.099311605,0.097978503,0.100489706,0.104166299,0.100579336,0.100946367
250.9612885,-0.006160296,0.103590623,0.101712197,0.103888653,0.099576928,0.108580299,0.100210294,0.100209869,0.099087775,0.101504654,0.105130099,0.101592727,0.101914108
250.0149689,-0.00590562,0.104615353,0.102881178,0.104799606,0.100577861,0.109592237,0.101022996,0.101311229,0.099860847,0.102501102,0.106145449,0.102484845,0.10275165
249.0740967,-0.00575452,0.105919294,0.104325086,0.106007181,0.101682648,0.110769965,0.102087751,0.102699809,0.101383083,0.103610337,0.107279986,0.10378588,0.104166068
247.9764252,-0.00601194,0.10698472,0.105325125,0.106972396,0.102715544,0.111846529,0.103281461,0.103692368,0.102074459,0.104704522,0.108163588,0.104645394,0.104954541
247.0354614,-0.006133242,0.105868988,0.104649514,0.106571585,0.102105141,0.111007147,0.102744632,0.103233554,0.10159266,0.103931472,0.107504763,0.104312807,0.104979195
245.9375763,-0.006776914,0.107483774,0.105912462,0.108250067,0.103545182,0.11296998,0.10443645,0.104594968,0.102993816,0.105775222,0.108694822,0.10560742,0.106144294
244.9964294,-0.006373653,0.109702662,0.108172521,0.110069722,0.105348848,0.115042552,0.106227264,0.106470287,0.104866698,0.1076006,0.110667914,0.107445717,0.107787579
244.0552063,-0.006028636,0.111766897,0.110066749,0.11189837,0.106923021,0.1168795,0.107819602,0.108327292,0.106793113,0.109267354,0.112402506,0.109134741,0.109576114
242.9570007,-0.005796412,0.11327903,0.11160145,0.113399774,0.108334668,0.118272446,0.10906256,0.109718092,0.108193211,0.11076732,0.113780364,0.1103938,0.110910595
242.0155945,-0.006414924,0.11348515,0.111817926,0.11439465,0.108752742,0.11920426,0.109723121,0.110270754,0.10850957,0.111368425,0.114000082,0.11094562,0.111569755
241.0740967,-0.006867784,0.114889413,0.11326129,0.115525939,0.110012524,0.120445818,0.110956982,0.111328952,0.109824613,0.11267253,0.115345419,0.112153061,0.112490103
239.9755859,-0.006806526,0.116472185,0.114713676,0.116780177,0.111265905,0.122190937,0.112299137,0.113035731,0.111173406,0.113983795,0.116948627,0.113707244,0.114013784
239.0339203,-0.006557686,0.11940752,0.117694236,0.119700313,0.113989145,0.124982707,0.114778809,0.115573093,0.113901749,0.116480008,0.119514473,0.116226621,0.116461456
237.9351959,-0.006447061,0.121750921,0.119754843,0.121901296,0.115985684,0.127231225,0.117048092,0.117645562,0.116002455,0.118735209,0.121473283,0.11826323,0.118481048
236.9933472,-0.006701675,0.123504467,0.121584579,0.123660713,0.11777588,0.129155949,0.118517675,0.11923945,0.117834307,0.12019895,0.123208277,0.120084561,0.120117329
236.0514221,-0.006761265,0.125655845,0.12373323,0.125575826,0.119533829,0.131177634,0.120324567,0.121215977,0.119774662,0.122147352,0.12522161,0.12172924,0.121868424
234.9523926,-0.006994859,0.128041029,0.126215681,0.127770588,0.121934302,0.133634299,0.122477755,0.123386562,0.121849202,0.124266431,0.127698794,0.123840079,0.123815328
234.0102844,-0.006400641,0.131193638,0.129471645,0.130800843,0.124675438,0.136819989,0.125286847,0.126327857,0.124766402,0.127174407,0.130732521,0.12665689,0.126709774
233.0681,-0.0071084,0.132531151,0.130287767,0.132309258,0.125752762,0.138247371,0.126185641,0.127439708,0.126082704,0.128282964,0.131981954,0.127832502,0.128065676
231.9687805,-0.006926741,0.136673257,0.134408042,0.135961488,0.129485324,0.142063037,0.129409075,0.131136745,0.129490688,0.131624609,0.135676354,0.131085843,0.131204918
231.026413,-0.007038211,0.13880299,0.136468783,0.137642682,0.131211996,0.144255117,0.131429821,0.132793739,0.131265774,0.133440986,0.137618303,0.133233488,0.133305043
229.9268951,-0.007181226,0.142171115,0.139551923,0.140659288,0.134117127,0.147542939,0.13408941,0.136061192,0.134261295,0.136408001,0.140783444,0.135984108,0.1359341
,,,,,,,,,,,,,
Baseline 100%T,,,,,,,,,,,,,
Baseline 100%T,,,,,,,,,,,,,
Collection Time: 09/08/2022 9:45:23 AM,,,,,,,,,,,,,
Operator Name  :,,,,,,,,,,,,,
Scan Software Version: 4.10(464),,,,,,,,,,,,,
Parameter List :,,,,,,,,,,,,,
Instrument                        Cary 50,,,,,,,,,,,,,
Instrument Version                3.00,,,,,,,,,,,,,
Start (nm)                        800.0,,,,,,,,,,,,,
Stop (nm)                         230.0,,,,,,,,,,,,,
X Mode                            Nanometers,,,,,,,,,,,,,
Y Mode                            Abs,,,,,,,,,,,,,
UV-Vis Scan Rate (nm/min)         240.00,,,,,,,,,,,,,
UV-Vis Data Interval (nm)         1.00,,,,,,,,,,,,,
UV-Vis Ave. Time (sec)            0.2500,,,,,,,,,,,,,
Beam Mode                         Dual Beam,,,,,,,,,,,,,
Baseline Correction               On,,,,,,,,,,,,,
Baseline Type                     Baseline correction,,,,,,,,,,,,,
Baseline File Name,,,,,,,,,,,,,
Baseline Std Ref File Name,,,,,,,,,,,,,
Cycle Mode                        Off,,,,,,,,,,,,,
Comments,,,,,,,,,,,,,
Method Log     :,,,,,,,,,,,,,
Method Name    : C:\DOCUMENTS AND SETTINGS\XENOPOULOS LAB\DESKTOP\CARY50 METHODS\ABSSCAN_800TO230NM.MSW,,,,,,,,,,,,,
Date/Time stamp: 11/07/2011 5:15:55 PM,,,,,,,,,,,,,
Method Modifications:,,,,,,,,,,,,,
X Stop nm Changed: 11/07/2011 5:14:48 PM,,,,,,,,,,,,,
Common Interval nm Changed: 11/07/2011 5:14:54 PM,,,,,,,,,,,,,
UVVIS SAT Changed: 11/07/2011 5:15:01 PM,,,,,,,,,,,,,
Common SAT Changed: 11/07/2011 5:15:01 PM,,,,,,,,,,,,,
Baseline Correction Changed: 11/07/2011 5:15:06 PM,,,,,,,,,,,,,
Autoconvert Changed: 11/07/2011 5:15:15 PM,,,,,,,,,,,,,
XY Table Changed: 11/07/2011 5:15:15 PM,,,,,,,,,,,,,
Y Min Abs Changed: 11/07/2011 5:15:24 PM,,,,,,,,,,,,,
Saved as C:\Documents and Settings\Xenopoulos Lab\Desktop\Cary50 Methods\AbsScan_800to230nm.MSW,,,,,,,,,,,,,
Opened C:\DOCUMENTS AND SETTINGS\XENOPOULOS LAB\DESKTOP\CARY50 METHODS\ABSSCAN_800TO230NM.MSW,,,,,,,,,,,,,
End Method Modifications,,,,,,,,,,,,,
<Current Wavelength> ,,,,,,,,,,,,,
,,,,,,,,,,,,,
BLANK,,,,,,,,,,,,,
BLANK,,,,,,,,,,,,,
Collection Time: 09/08/2022 9:50:42 AM,,,,,,,,,,,,,
Operator Name  :,,,,,,,,,,,,,
Scan Software Version: 4.10(464),,,,,,,,,,,,,
Parameter List :,,,,,,,,,,,,,
Instrument                        Cary 50,,,,,,,,,,,,,
Instrument Version                3.00,,,,,,,,,,,,,
Start (nm)                        800.0,,,,,,,,,,,,,
Stop (nm)                         230.0,,,,,,,,,,,,,
X Mode                            Nanometers,,,,,,,,,,,,,
Y Mode                            Abs,,,,,,,,,,,,,
UV-Vis Scan Rate (nm/min)         240.00,,,,,,,,,,,,,
UV-Vis Data Interval (nm)         1.00,,,,,,,,,,,,,
UV-Vis Ave. Time (sec)            0.2500,,,,,,,,,,,,,
Beam Mode                         Dual Beam,,,,,,,,,,,,,
Baseline Correction               On,,,,,,,,,,,,,
Baseline Type                     Baseline correction,,,,,,,,,,,,,
Baseline File Name,,,,,,,,,,,,,
Baseline Std Ref File Name,,,,,,,,,,,,,
Cycle Mode                        Off,,,,,,,,,,,,,
Comments,,,,,,,,,,,,,
Method Log     :,,,,,,,,,,,,,
Method Name    : C:\DOCUMENTS AND SETTINGS\XENOPOULOS LAB\DESKTOP\CARY50 METHODS\ABSSCAN_800TO230NM.MSW,,,,,,,,,,,,,
Date/Time stamp: 11/07/2011 5:15:55 PM,,,,,,,,,,,,,
Method Modifications:,,,,,,,,,,,,,
X Stop nm Changed: 11/07/2011 5:14:48 PM,,,,,,,,,,,,,
Common Interval nm Changed: 11/07/2011 5:14:54 PM,,,,,,,,,,,,,
UVVIS SAT Changed: 11/07/2011 5:15:01 PM,,,,,,,,,,,,,
Common SAT Changed: 11/07/2011 5:15:01 PM,,,,,,,,,,,,,
Baseline Correction Changed: 11/07/2011 5:15:06 PM,,,,,,,,,,,,,
Autoconvert Changed: 11/07/2011 5:15:15 PM,,,,,,,,,,,,,
XY Table Changed: 11/07/2011 5:15:15 PM,,,,,,,,,,,,,
Y Min Abs Changed: 11/07/2011 5:15:24 PM,,,,,,,,,,,,,
Saved as C:\Documents and Settings\Xenopoulos Lab\Desktop\Cary50 Methods\AbsScan_800to230nm.MSW,,,,,,,,,,,,,
Opened C:\DOCUMENTS AND SETTINGS\XENOPOULOS LAB\DESKTOP\CARY50 METHODS\ABSSCAN_800TO230NM.MSW,,,,,,,,,,,,,
End Method Modifications,,,,,,,,,,,,,
<Current Wavelength> ,,,,,,,,,,,,,
,,,,,,,,,,,,,
ELA_109,,,,,,,,,,,,,
ELA_109,,,,,,,,,,,,,
Collection Time: 09/08/2022 9:54:51 AM,,,,,,,,,,,,,
Operator Name  :,,,,,,,,,,,,,
Scan Software Version: 4.10(464),,,,,,,,,,,,,
Parameter List :,,,,,,,,,,,,,
Instrument                        Cary 50,,,,,,,,,,,,,
Instrument Version                3.00,,,,,,,,,,,,,
Start (nm)                        800.0,,,,,,,,,,,,,
Stop (nm)                         230.0,,,,,,,,,,,,,
X Mode                            Nanometers,,,,,,,,,,,,,
Y Mode                            Abs,,,,,,,,,,,,,
UV-Vis Scan Rate (nm/min)         240.00,,,,,,,,,,,,,
UV-Vis Data Interval (nm)         1.00,,,,,,,,,,,,,
UV-Vis Ave. Time (sec)            0.2500,,,,,,,,,,,,,
Beam Mode                         Dual Beam,,,,,,,,,,,,,
Baseline Correction               On,,,,,,,,,,,,,
Baseline Type                     Baseline correction,,,,,,,,,,,,,
Baseline File Name,,,,,,,,,,,,,
Baseline Std Ref File Name,,,,,,,,,,,,,
Cycle Mode                        Off,,,,,,,,,,,,,
Comments,,,,,,,,,,,,,
Method Log     :,,,,,,,,,,,,,
Method Name    : C:\DOCUMENTS AND SETTINGS\XENOPOULOS LAB\DESKTOP\CARY50 METHODS\ABSSCAN_800TO230NM.MSW,,,,,,,,,,,,,
Date/Time stamp: 11/07/2011 5:15:55 PM,,,,,,,,,,,,,
Method Modifications:,,,,,,,,,,,,,
X Stop nm Changed: 11/07/2011 5:14:48 PM,,,,,,,,,,,,,
Common Interval nm Changed: 11/07/2011 5:14:54 PM,,,,,,,,,,,,,
UVVIS SAT Changed: 11/07/2011 5:15:01 PM,,,,,,,,,,,,,
Common SAT Changed: 11/07/2011 5:15:01 PM,,,,,,,,,,,,,
Baseline Correction Changed: 11/07/2011 5:15:06 PM,,,,,,,,,,,,,
Autoconvert Changed: 11/07/2011 5:15:15 PM,,,,,,,,,,,,,
XY Table Changed: 11/07/2011 5:15:15 PM,,,,,,,,,,,,,
Y Min Abs Changed: 11/07/2011 5:15:24 PM,,,,,,,,,,,,,
Saved as C:\Documents and Settings\Xenopoulos Lab\Desktop\Cary50 Methods\AbsScan_800to230nm.MSW,,,,,,,,,,,,,
Opened C:\DOCUMENTS AND SETTINGS\XENOPOULOS LAB\DESKTOP\CARY50 METHODS\ABSSCAN_800TO230NM.MSW,,,,,,,,,,,,,
End Method Modifications,,,,,,,,,,,,,
<Current Wavelength> ,,,,,,,,,,,,,
,,,,,,,,,,,,,
ELA_930,,,,,,,,,,,,,
ELA_930,,,,,,,,,,,,,
Collection Time: 09/08/2022 9:58:57 AM,,,,,,,,,,,,,
Operator Name  :,,,,,,,,,,,,,
Scan Software Version: 4.10(464),,,,,,,,,,,,,
Parameter List :,,,,,,,,,,,,,
Instrument                        Cary 50,,,,,,,,,,,,,
Instrument Version                3.00,,,,,,,,,,,,,
Start (nm)                        800.0,,,,,,,,,,,,,
Stop (nm)                         230.0,,,,,,,,,,,,,
X Mode                            Nanometers,,,,,,,,,,,,,
Y Mode                            Abs,,,,,,,,,,,,,
UV-Vis Scan Rate (nm/min)         240.00,,,,,,,,,,,,,
UV-Vis Data Interval (nm)         1.00,,,,,,,,,,,,,
UV-Vis Ave. Time (sec)            0.2500,,,,,,,,,,,,,
Beam Mode                         Dual Beam,,,,,,,,,,,,,
Baseline Correction               On,,,,,,,,,,,,,
Baseline Type                     Baseline correction,,,,,,,,,,,,,
Baseline File Name,,,,,,,,,,,,,
Baseline Std Ref File Name,,,,,,,,,,,,,
Cycle Mode                        Off,,,,,,,,,,,,,
Comments,,,,,,,,,,,,,
Method Log     :,,,,,,,,,,,,,
Method Name    : C:\DOCUMENTS AND SETTINGS\XENOPOULOS LAB\DESKTOP\CARY50 METHODS\ABSSCAN_800TO230NM.MSW,,,,,,,,,,,,,
Date/Time stamp: 11/07/2011 5:15:55 PM,,,,,,,,,,,,,
Method Modifications:,,,,,,,,,,,,,
X Stop nm Changed: 11/07/2011 5:14:48 PM,,,,,,,,,,,,,
Common Interval nm Changed: 11/07/2011 5:14:54 PM,,,,,,,,,,,,,
UVVIS SAT Changed: 11/07/2011 5:15:01 PM,,,,,,,,,,,,,
Common SAT Changed: 11/07/2011 5:15:01 PM,,,,,,,,,,,,,
Baseline Correction Changed: 11/07/2011 5:15:06 PM,,,,,,,,,,,,,
Autoconvert Changed: 11/07/2011 5:15:15 PM,,,,,,,,,,,,,
XY Table Changed: 11/07/2011 5:15:15 PM,,,,,,,,,,,,,
Y Min Abs Changed: 11/07/2011 5:15:24 PM,,,,,,,,,,,,,
Saved as C:\Documents and Settings\Xenopoulos Lab\Desktop\Cary50 Methods\AbsScan_800to230nm.MSW,,,,,,,,,,,,,
Opened C:\DOCUMENTS AND SETTINGS\XENOPOULOS LAB\DESKTOP\CARY50 METHODS\ABSSCAN_800TO230NM.MSW,,,,,,,,,,,,,
End Method Modifications,,,,,,,,,,,,,
<Current Wavelength> ,,,,,,,,,,,,,
,,,,,,,,,,,,,
ELA_903,,,,,,,,,,,,,
ELA_903,,,,,,,,,,,,,
Collection Time: 09/08/2022 10:03:20 AM,,,,,,,,,,,,,
Operator Name  :,,,,,,,,,,,,,
Scan Software Version: 4.10(464),,,,,,,,,,,,,
Parameter List :,,,,,,,,,,,,,
Instrument                        Cary 50,,,,,,,,,,,,,
Instrument Version                3.00,,,,,,,,,,,,,
Start (nm)                        800.0,,,,,,,,,,,,,
Stop (nm)                         230.0,,,,,,,,,,,,,
X Mode                            Nanometers,,,,,,,,,,,,,
Y Mode                            Abs,,,,,,,,,,,,,
UV-Vis Scan Rate (nm/min)         240.00,,,,,,,,,,,,,
UV-Vis Data Interval (nm)         1.00,,,,,,,,,,,,,
UV-Vis Ave. Time (sec)            0.2500,,,,,,,,,,,,,
Beam Mode                         Dual Beam,,,,,,,,,,,,,
Baseline Correction               On,,,,,,,,,,,,,
Baseline Type                     Baseline correction,,,,,,,,,,,,,
Baseline File Name,,,,,,,,,,,,,
Baseline Std Ref File Name,,,,,,,,,,,,,
Cycle Mode                        Off,,,,,,,,,,,,,
Comments,,,,,,,,,,,,,
Method Log     :,,,,,,,,,,,,,
Method Name    : C:\DOCUMENTS AND SETTINGS\XENOPOULOS LAB\DESKTOP\CARY50 METHODS\ABSSCAN_800TO230NM.MSW,,,,,,,,,,,,,
Date/Time stamp: 11/07/2011 5:15:55 PM,,,,,,,,,,,,,
Method Modifications:,,,,,,,,,,,,,
X Stop nm Changed: 11/07/2011 5:14:48 PM,,,,,,,,,,,,,
Common Interval nm Changed: 11/07/2011 5:14:54 PM,,,,,,,,,,,,,
UVVIS SAT Changed: 11/07/2011 5:15:01 PM,,,,,,,,,,,,,
Common SAT Changed: 11/07/2011 5:15:01 PM,,,,,,,,,,,,,
Baseline Correction Changed: 11/07/2011 5:15:06 PM,,,,,,,,,,,,,
Autoconvert Changed: 11/07/2011 5:15:15 PM,,,,,,,,,,,,,
XY Table Changed: 11/07/2011 5:15:15 PM,,,,,,,,,,,,,
Y Min Abs Changed: 11/07/2011 5:15:24 PM,,,,,,,,,,,,,
Saved as C:\Documents and Settings\Xenopoulos Lab\Desktop\Cary50 Methods\AbsScan_800to230nm.MSW,,,,,,,,,,,,,
Opened C:\DOCUMENTS AND SETTINGS\XENOPOULOS LAB\DESKTOP\CARY50 METHODS\ABSSCAN_800TO230NM.MSW,,,,,,,,,,,,,
End Method Modifications,,,,,,,,,,,,,
<Current Wavelength> ,,,,,,,,,,,,,
,,,,,,,,,,,,,
ELA_1010,,,,,,,,,,,,,
ELA_1010,,,,,,,,,,,,,
Collection Time: 09/08/2022 10:07:19 AM,,,,,,,,,,,,,
Operator Name  :,,,,,,,,,,,,,
Scan Software Version: 4.10(464),,,,,,,,,,,,,
Parameter List :,,,,,,,,,,,,,
Instrument                        Cary 50,,,,,,,,,,,,,
Instrument Version                3.00,,,,,,,,,,,,,
Start (nm)                        800.0,,,,,,,,,,,,,
Stop (nm)                         230.0,,,,,,,,,,,,,
X Mode                            Nanometers,,,,,,,,,,,,,
Y Mode                            Abs,,,,,,,,,,,,,
UV-Vis Scan Rate (nm/min)         240.00,,,,,,,,,,,,,
UV-Vis Data Interval (nm)         1.00,,,,,,,,,,,,,
UV-Vis Ave. Time (sec)            0.2500,,,,,,,,,,,,,
Beam Mode                         Dual Beam,,,,,,,,,,,,,
Baseline Correction               On,,,,,,,,,,,,,
Baseline Type                     Baseline correction,,,,,,,,,,,,,
Baseline File Name,,,,,,,,,,,,,
Baseline Std Ref File Name,,,,,,,,,,,,,
Cycle Mode                        Off,,,,,,,,,,,,,
Comments,,,,,,,,,,,,,
Method Log     :,,,,,,,,,,,,,
Method Name    : C:\DOCUMENTS AND SETTINGS\XENOPOULOS LAB\DESKTOP\CARY50 METHODS\ABSSCAN_800TO230NM.MSW,,,,,,,,,,,,,
Date/Time stamp: 11/07/2011 5:15:55 PM,,,,,,,,,,,,,
Method Modifications:,,,,,,,,,,,,,
X Stop nm Changed: 11/07/2011 5:14:48 PM,,,,,,,,,,,,,
Common Interval nm Changed: 11/07/2011 5:14:54 PM,,,,,,,,,,,,,
UVVIS SAT Changed: 11/07/2011 5:15:01 PM,,,,,,,,,,,,,
Common SAT Changed: 11/07/2011 5:15:01 PM,,,,,,,,,,,,,
Baseline Correction Changed: 11/07/2011 5:15:06 PM,,,,,,,,,,,,,
Autoconvert Changed: 11/07/2011 5:15:15 PM,,,,,,,,,,,,,
XY Table Changed: 11/07/2011 5:15:15 PM,,,,,,,,,,,,,
Y Min Abs Changed: 11/07/2011 5:15:24 PM,,,,,,,,,,,,,
Saved as C:\Documents and Settings\Xenopoulos Lab\Desktop\Cary50 Methods\AbsScan_800to230nm.MSW,,,,,,,,,,,,,
Opened C:\DOCUMENTS AND SETTINGS\XENOPOULOS LAB\DESKTOP\CARY50 METHODS\ABSSCAN_800TO230NM.MSW,,,,,,,,,,,,,
End Method Modifications,,,,,,,,,,,,,
<Current Wavelength> ,,,,,,,,,,,,,
,,,,,,,,,,,,,
ELA_105,,,,,,,,,,,,,
ELA_105,,,,,,,,,,,,,
Collection Time: 09/08/2022 10:11:22 AM,,,,,,,,,,,,,
Operator Name  :,,,,,,,,,,,,,
Scan Software Version: 4.10(464),,,,,,,,,,,,,
Parameter List :,,,,,,,,,,,,,
Instrument                        Cary 50,,,,,,,,,,,,,
Instrument Version                3.00,,,,,,,,,,,,,
Start (nm)                        800.0,,,,,,,,,,,,,
Stop (nm)                         230.0,,,,,,,,,,,,,
X Mode                            Nanometers,,,,,,,,,,,,,
Y Mode                            Abs,,,,,,,,,,,,,
UV-Vis Scan Rate (nm/min)         240.00,,,,,,,,,,,,,
UV-Vis Data Interval (nm)         1.00,,,,,,,,,,,,,
UV-Vis Ave. Time (sec)            0.2500,,,,,,,,,,,,,
Beam Mode                         Dual Beam,,,,,,,,,,,,,
Baseline Correction               On,,,,,,,,,,,,,
Baseline Type                     Baseline correction,,,,,,,,,,,,,
Baseline File Name,,,,,,,,,,,,,
Baseline Std Ref File Name,,,,,,,,,,,,,
Cycle Mode                        Off,,,,,,,,,,,,,
Comments,,,,,,,,,,,,,
Method Log     :,,,,,,,,,,,,,
Method Name    : C:\DOCUMENTS AND SETTINGS\XENOPOULOS LAB\DESKTOP\CARY50 METHODS\ABSSCAN_800TO230NM.MSW,,,,,,,,,,,,,
Date/Time stamp: 11/07/2011 5:15:55 PM,,,,,,,,,,,,,
Method Modifications:,,,,,,,,,,,,,
X Stop nm Changed: 11/07/2011 5:14:48 PM,,,,,,,,,,,,,
Common Interval nm Changed: 11/07/2011 5:14:54 PM,,,,,,,,,,,,,
UVVIS SAT Changed: 11/07/2011 5:15:01 PM,,,,,,,,,,,,,
Common SAT Changed: 11/07/2011 5:15:01 PM,,,,,,,,,,,,,
Baseline Correction Changed: 11/07/2011 5:15:06 PM,,,,,,,,,,,,,
Autoconvert Changed: 11/07/2011 5:15:15 PM,,,,,,,,,,,,,
XY Table Changed: 11/07/2011 5:15:15 PM,,,,,,,,,,,,,
Y Min Abs Changed: 11/07/2011 5:15:24 PM,,,,,,,,,,,,,
Saved as C:\Documents and Settings\Xenopoulos Lab\Desktop\Cary50 Methods\AbsScan_800to230nm.MSW,,,,,,,,,,,,,
Opened C:\DOCUMENTS AND SETTINGS\XENOPOULOS LAB\DESKTOP\CARY50 METHODS\ABSSCAN_800TO230NM.MSW,,,,,,,,,,,,,
End Method Modifications,,,,,,,,,,,,,
<Current Wavelength> ,,,,,,,,,,,,,
,,,,,,,,,,,,,
ELA_913,,,,,,,,,,,,,
ELA_913,,,,,,,,,,,,,
Collection Time: 09/08/2022 10:15:14 AM,,,,,,,,,,,,,
Operator Name  :,,,,,,,,,,,,,
Scan Software Version: 4.10(464),,,,,,,,,,,,,
Parameter List :,,,,,,,,,,,,,
Instrument                        Cary 50,,,,,,,,,,,,,
Instrument Version                3.00,,,,,,,,,,,,,
Start (nm)                        800.0,,,,,,,,,,,,,
Stop (nm)                         230.0,,,,,,,,,,,,,
X Mode                            Nanometers,,,,,,,,,,,,,
Y Mode                            Abs,,,,,,,,,,,,,
UV-Vis Scan Rate (nm/min)         240.00,,,,,,,,,,,,,
UV-Vis Data Interval (nm)         1.00,,,,,,,,,,,,,
UV-Vis Ave. Time (sec)            0.2500,,,,,,,,,,,,,
Beam Mode                         Dual Beam,,,,,,,,,,,,,
Baseline Correction               On,,,,,,,,,,,,,
Baseline Type                     Baseline correction,,,,,,,,,,,,,
Baseline File Name,,,,,,,,,,,,,
Baseline Std Ref File Name,,,,,,,,,,,,,
Cycle Mode                        Off,,,,,,,,,,,,,
Comments,,,,,,,,,,,,,
Method Log     :,,,,,,,,,,,,,
Method Name    : C:\DOCUMENTS AND SETTINGS\XENOPOULOS LAB\DESKTOP\CARY50 METHODS\ABSSCAN_800TO230NM.MSW,,,,,,,,,,,,,
Date/Time stamp: 11/07/2011 5:15:55 PM,,,,,,,,,,,,,
Method Modifications:,,,,,,,,,,,,,
X Stop nm Changed: 11/07/2011 5:14:48 PM,,,,,,,,,,,,,
Common Interval nm Changed: 11/07/2011 5:14:54 PM,,,,,,,,,,,,,
UVVIS SAT Changed: 11/07/2011 5:15:01 PM,,,,,,,,,,,,,
Common SAT Changed: 11/07/2011 5:15:01 PM,,,,,,,,,,,,,
Baseline Correction Changed: 11/07/2011 5:15:06 PM,,,,,,,,,,,,,
Autoconvert Changed: 11/07/2011 5:15:15 PM,,,,,,,,,,,,,
XY Table Changed: 11/07/2011 5:15:15 PM,,,,,,,,,,,,,
Y Min Abs Changed: 11/07/2011 5:15:24 PM,,,,,,,,,,,,,
Saved as C:\Documents and Settings\Xenopoulos Lab\Desktop\Cary50 Methods\AbsScan_800to230nm.MSW,,,,,,,,,,,,,
Opened C:\DOCUMENTS AND SETTINGS\XENOPOULOS LAB\DESKTOP\CARY50 METHODS\ABSSCAN_800TO230NM.MSW,,,,,,,,,,,,,
End Method Modifications,,,,,,,,,,,,,
<Current Wavelength> ,,,,,,,,,,,,,
,,,,,,,,,,,,,
ELA_909,,,,,,,,,,,,,
ELA_909,,,,,,,,,,,,,
Collection Time: 09/08/2022 10:19:04 AM,,,,,,,,,,,,,
Operator Name  :,,,,,,,,,,,,,
Scan Software Version: 4.10(464),,,,,,,,,,,,,
Parameter List :,,,,,,,,,,,,,
Instrument                        Cary 50,,,,,,,,,,,,,
Instrument Version                3.00,,,,,,,,,,,,,
Start (nm)                        800.0,,,,,,,,,,,,,
Stop (nm)                         230.0,,,,,,,,,,,,,
X Mode                            Nanometers,,,,,,,,,,,,,
Y Mode                            Abs,,,,,,,,,,,,,
UV-Vis Scan Rate (nm/min)         240.00,,,,,,,,,,,,,
UV-Vis Data Interval (nm)         1.00,,,,,,,,,,,,,
UV-Vis Ave. Time (sec)            0.2500,,,,,,,,,,,,,
Beam Mode                         Dual Beam,,,,,,,,,,,,,
Baseline Correction               On,,,,,,,,,,,,,
Baseline Type                     Baseline correction,,,,,,,,,,,,,
Baseline File Name,,,,,,,,,,,,,
Baseline Std Ref File Name,,,,,,,,,,,,,
Cycle Mode                        Off,,,,,,,,,,,,,
Comments,,,,,,,,,,,,,
Method Log     :,,,,,,,,,,,,,
Method Name    : C:\DOCUMENTS AND SETTINGS\XENOPOULOS LAB\DESKTOP\CARY50 METHODS\ABSSCAN_800TO230NM.MSW,,,,,,,,,,,,,
Date/Time stamp: 11/07/2011 5:15:55 PM,,,,,,,,,,,,,
Method Modifications:,,,,,,,,,,,,,
X Stop nm Changed: 11/07/2011 5:14:48 PM,,,,,,,,,,,,,
Common Interval nm Changed: 11/07/2011 5:14:54 PM,,,,,,,,,,,,,
UVVIS SAT Changed: 11/07/2011 5:15:01 PM,,,,,,,,,,,,,
Common SAT Changed: 11/07/2011 5:15:01 PM,,,,,,,,,,,,,
Baseline Correction Changed: 11/07/2011 5:15:06 PM,,,,,,,,,,,,,
Autoconvert Changed: 11/07/2011 5:15:15 PM,,,,,,,,,,,,,
XY Table Changed: 11/07/2011 5:15:15 PM,,,,,,,,,,,,,
Y Min Abs Changed: 11/07/2011 5:15:24 PM,,,,,,,,,,,,,
Saved as C:\Documents and Settings\Xenopoulos Lab\Desktop\Cary50 Methods\AbsScan_800to230nm.MSW,,,,,,,,,,,,,
Opened C:\DOCUMENTS AND SETTINGS\XENOPOULOS LAB\DESKTOP\CARY50 METHODS\ABSSCAN_800TO230NM.MSW,,,,,,,,,,,,,
End Method Modifications,,,,,,,,,,,,,
<Current Wavelength> ,,,,,,,,,,,,,
,,,,,,,,,,,,,
ELA_CTL2_L222_224,,,,,,,,,,,,,
ELA_CTL2_L222_224,,,,,,,,,,,,,
Collection Time: 09/08/2022 10:23:15 AM,,,,,,,,,,,,,
Operator Name  :,,,,,,,,,,,,,
Scan Software Version: 4.10(464),,,,,,,,,,,,,
Parameter List :,,,,,,,,,,,,,
Instrument                        Cary 50,,,,,,,,,,,,,
Instrument Version                3.00,,,,,,,,,,,,,
Start (nm)                        800.0,,,,,,,,,,,,,
Stop (nm)                         230.0,,,,,,,,,,,,,
X Mode                            Nanometers,,,,,,,,,,,,,
Y Mode                            Abs,,,,,,,,,,,,,
UV-Vis Scan Rate (nm/min)         240.00,,,,,,,,,,,,,
UV-Vis Data Interval (nm)         1.00,,,,,,,,,,,,,
UV-Vis Ave. Time (sec)            0.2500,,,,,,,,,,,,,
Beam Mode                         Dual Beam,,,,,,,,,,,,,
Baseline Correction               On,,,,,,,,,,,,,
Baseline Type                     Baseline correction,,,,,,,,,,,,,
Baseline File Name,,,,,,,,,,,,,
Baseline Std Ref File Name,,,,,,,,,,,,,
Cycle Mode                        Off,,,,,,,,,,,,,
Comments,,,,,,,,,,,,,
Method Log     :,,,,,,,,,,,,,
Method Name    : C:\DOCUMENTS AND SETTINGS\XENOPOULOS LAB\DESKTOP\CARY50 METHODS\ABSSCAN_800TO230NM.MSW,,,,,,,,,,,,,
Date/Time stamp: 11/07/2011 5:15:55 PM,,,,,,,,,,,,,
Method Modifications:,,,,,,,,,,,,,
X Stop nm Changed: 11/07/2011 5:14:48 PM,,,,,,,,,,,,,
Common Interval nm Changed: 11/07/2011 5:14:54 PM,,,,,,,,,,,,,
UVVIS SAT Changed: 11/07/2011 5:15:01 PM,,,,,,,,,,,,,
Common SAT Changed: 11/07/2011 5:15:01 PM,,,,,,,,,,,,,
Baseline Correction Changed: 11/07/2011 5:15:06 PM,,,,,,,,,,,,,
Autoconvert Changed: 11/07/2011 5:15:15 PM,,,,,,,,,,,,,
XY Table Changed: 11/07/2011 5:15:15 PM,,,,,,,,,,,,,
Y Min Abs Changed: 11/07/2011 5:15:24 PM,,,,,,,,,,,,,
Saved as C:\Documents and Settings\Xenopoulos Lab\Desktop\Cary50 Methods\AbsScan_800to230nm.MSW,,,,,,,,,,,,,
Opened C:\DOCUMENTS AND SETTINGS\XENOPOULOS LAB\DESKTOP\CARY50 METHODS\ABSSCAN_800TO230NM.MSW,,,,,,,,,,,,,
End Method Modifications,,,,,,,,,,,,,
<Current Wavelength> ,,,,,,,,,,,,,
,,,,,,,,,,,,,
ELA_948,,,,,,,,,,,,,
ELA_948,,,,,,,,,,,,,
Collection Time: 09/08/2022 10:27:34 AM,,,,,,,,,,,,,
Operator Name  :,,,,,,,,,,,,,
Scan Software Version: 4.10(464),,,,,,,,,,,,,
Parameter List :,,,,,,,,,,,,,
Instrument                        Cary 50,,,,,,,,,,,,,
Instrument Version                3.00,,,,,,,,,,,,,
Start (nm)                        800.0,,,,,,,,,,,,,
Stop (nm)                         230.0,,,,,,,,,,,,,
X Mode                            Nanometers,,,,,,,,,,,,,
Y Mode                            Abs,,,,,,,,,,,,,
UV-Vis Scan Rate (nm/min)         240.00,,,,,,,,,,,,,
UV-Vis Data Interval (nm)         1.00,,,,,,,,,,,,,
UV-Vis Ave. Time (sec)            0.2500,,,,,,,,,,,,,
Beam Mode                         Dual Beam,,,,,,,,,,,,,
Baseline Correction               On,,,,,,,,,,,,,
Baseline Type                     Baseline correction,,,,,,,,,,,,,
Baseline File Name,,,,,,,,,,,,,
Baseline Std Ref File Name,,,,,,,,,,,,,
Cycle Mode                        Off,,,,,,,,,,,,,
Comments,,,,,,,,,,,,,
Method Log     :,,,,,,,,,,,,,
Method Name    : C:\DOCUMENTS AND SETTINGS\XENOPOULOS LAB\DESKTOP\CARY50 METHODS\ABSSCAN_800TO230NM.MSW,,,,,,,,,,,,,
Date/Time stamp: 11/07/2011 5:15:55 PM,,,,,,,,,,,,,
Method Modifications:,,,,,,,,,,,,,
X Stop nm Changed: 11/07/2011 5:14:48 PM,,,,,,,,,,,,,
Common Interval nm Changed: 11/07/2011 5:14:54 PM,,,,,,,,,,,,,
UVVIS SAT Changed: 11/07/2011 5:15:01 PM,,,,,,,,,,,,,
Common SAT Changed: 11/07/2011 5:15:01 PM,,,,,,,,,,,,,
Baseline Correction Changed: 11/07/2011 5:15:06 PM,,,,,,,,,,,,,
Autoconvert Changed: 11/07/2011 5:15:15 PM,,,,,,,,,,,,,
XY Table Changed: 11/07/2011 5:15:15 PM,,,,,,,,,,,,,
Y Min Abs Changed: 11/07/2011 5:15:24 PM,,,,,,,,,,,,,
Saved as C:\Documents and Settings\Xenopoulos Lab\Desktop\Cary50 Methods\AbsScan_800to230nm.MSW,,,,,,,,,,,,,
Opened C:\DOCUMENTS AND SETTINGS\XENOPOULOS LAB\DESKTOP\CARY50 METHODS\ABSSCAN_800TO230NM.MSW,,,,,,,,,,,,,
End Method Modifications,,,,,,,,,,,,,
<Current Wavelength> ,,,,,,,,,,,,,
,,,,,,,,,,,,,
ELA_944,,,,,,,,,,,,,
ELA_944,,,,,,,,,,,,,
Collection Time: 09/08/2022 10:31:26 AM,,,,,,,,,,,,,
Operator Name  :,,,,,,,,,,,,,
Scan Software Version: 4.10(464),,,,,,,,,,,,,
Parameter List :,,,,,,,,,,,,,
Instrument                        Cary 50,,,,,,,,,,,,,
Instrument Version                3.00,,,,,,,,,,,,,
Start (nm)                        800.0,,,,,,,,,,,,,
Stop (nm)                         230.0,,,,,,,,,,,,,
X Mode                            Nanometers,,,,,,,,,,,,,
Y Mode                            Abs,,,,,,,,,,,,,
UV-Vis Scan Rate (nm/min)         240.00,,,,,,,,,,,,,
UV-Vis Data Interval (nm)         1.00,,,,,,,,,,,,,
UV-Vis Ave. Time (sec)            0.2500,,,,,,,,,,,,,
Beam Mode                         Dual Beam,,,,,,,,,,,,,
Baseline Correction               On,,,,,,,,,,,,,
Baseline Type                     Baseline correction,,,,,,,,,,,,,
Baseline File Name,,,,,,,,,,,,,
Baseline Std Ref File Name,,,,,,,,,,,,,
Cycle Mode                        Off,,,,,,,,,,,,,
Comments,,,,,,,,,,,,,
Method Log     :,,,,,,,,,,,,,
Method Name    : C:\DOCUMENTS AND SETTINGS\XENOPOULOS LAB\DESKTOP\CARY50 METHODS\ABSSCAN_800TO230NM.MSW,,,,,,,,,,,,,
Date/Time stamp: 11/07/2011 5:15:55 PM,,,,,,,,,,,,,
Method Modifications:,,,,,,,,,,,,,
X Stop nm Changed: 11/07/2011 5:14:48 PM,,,,,,,,,,,,,
Common Interval nm Changed: 11/07/2011 5:14:54 PM,,,,,,,,,,,,,
UVVIS SAT Changed: 11/07/2011 5:15:01 PM,,,,,,,,,,,,,
Common SAT Changed: 11/07/2011 5:15:01 PM,,,,,,,,,,,,,
Baseline Correction Changed: 11/07/2011 5:15:06 PM,,,,,,,,,,,,,
Autoconvert Changed: 11/07/2011 5:15:15 PM,,,,,,,,,,,,,
XY Table Changed: 11/07/2011 5:15:15 PM,,,,,,,,,,,,,
Y Min Abs Changed: 11/07/2011 5:15:24 PM,,,,,,,,,,,,,
Saved as C:\Documents and Settings\Xenopoulos Lab\Desktop\Cary50 Methods\AbsScan_800to230nm.MSW,,,,,,,,,,,,,
Opened C:\DOCUMENTS AND SETTINGS\XENOPOULOS LAB\DESKTOP\CARY50 METHODS\ABSSCAN_800TO230NM.MSW,,,,,,,,,,,,,
End Method Modifications,,,,,,,,,,,,,
<Current Wavelength> ,,,,,,,,,,,,,
,,,,,,,,,,,,,
ELA_CTL1_L239,,,,,,,,,,,,,
ELA_CTL1_L239,,,,,,,,,,,,,
Collection Time: 09/08/2022 10:35:51 AM,,,,,,,,,,,,,
Operator Name  :,,,,,,,,,,,,,
Scan Software Version: 4.10(464),,,,,,,,,,,,,
Parameter List :,,,,,,,,,,,,,
Instrument                        Cary 50,,,,,,,,,,,,,
Instrument Version                3.00,,,,,,,,,,,,,
Start (nm)                        800.0,,,,,,,,,,,,,
Stop (nm)                         230.0,,,,,,,,,,,,,
X Mode                            Nanometers,,,,,,,,,,,,,
Y Mode                            Abs,,,,,,,,,,,,,
UV-Vis Scan Rate (nm/min)         240.00,,,,,,,,,,,,,
UV-Vis Data Interval (nm)         1.00,,,,,,,,,,,,,
UV-Vis Ave. Time (sec)            0.2500,,,,,,,,,,,,,
Beam Mode                         Dual Beam,,,,,,,,,,,,,
Baseline Correction               On,,,,,,,,,,,,,
Baseline Type                     Baseline correction,,,,,,,,,,,,,
Baseline File Name,,,,,,,,,,,,,
Baseline Std Ref File Name,,,,,,,,,,,,,
Cycle Mode                        Off,,,,,,,,,,,,,
Comments,,,,,,,,,,,,,
Method Log     :,,,,,,,,,,,,,
Method Name    : C:\DOCUMENTS AND SETTINGS\XENOPOULOS LAB\DESKTOP\CARY50 METHODS\ABSSCAN_800TO230NM.MSW,,,,,,,,,,,,,
Date/Time stamp: 11/07/2011 5:15:55 PM,,,,,,,,,,,,,
Method Modifications:,,,,,,,,,,,,,
X Stop nm Changed: 11/07/2011 5:14:48 PM,,,,,,,,,,,,,
Common Interval nm Changed: 11/07/2011 5:14:54 PM,,,,,,,,,,,,,
UVVIS SAT Changed: 11/07/2011 5:15:01 PM,,,,,,,,,,,,,
Common SAT Changed: 11/07/2011 5:15:01 PM,,,,,,,,,,,,,
Baseline Correction Changed: 11/07/2011 5:15:06 PM,,,,,,,,,,,,,
Autoconvert Changed: 11/07/2011 5:15:15 PM,,,,,,,,,,,,,
XY Table Changed: 11/07/2011 5:15:15 PM,,,,,,,,,,,,,
Y Min Abs Changed: 11/07/2011 5:15:24 PM,,,,,,,,,,,,,
Saved as C:\Documents and Settings\Xenopoulos Lab\Desktop\Cary50 Methods\AbsScan_800to230nm.MSW,,,,,,,,,,,,,
Opened C:\DOCUMENTS AND SETTINGS\XENOPOULOS LAB\DESKTOP\CARY50 METHODS\ABSSCAN_800TO230NM.MSW,,,,,,,,,,,,,
End Method Modifications,,,,,,,,,,,,,
<Current Wavelength> ,,,,,,,,,,,,,
,,,,,,,,,,,,,
ELA_CTL2_L239,,,,,,,,,,,,,
ELA_CTL2_L239,,,,,,,,,,,,,
Collection Time: 09/08/2022 10:39:42 AM,,,,,,,,,,,,,
Operator Name  :,,,,,,,,,,,,,
Scan Software Version: 4.10(464),,,,,,,,,,,,,
Parameter List :,,,,,,,,,,,,,
Instrument                        Cary 50,,,,,,,,,,,,,
Instrument Version                3.00,,,,,,,,,,,,,
Start (nm)                        800.0,,,,,,,,,,,,,
Stop (nm)                         230.0,,,,,,,,,,,,,
X Mode                            Nanometers,,,,,,,,,,,,,
Y Mode                            Abs,,,,,,,,,,,,,
UV-Vis Scan Rate (nm/min)         240.00,,,,,,,,,,,,,
UV-Vis Data Interval (nm)         1.00,,,,,,,,,,,,,
UV-Vis Ave. Time (sec)            0.2500,,,,,,,,,,,,,
Beam Mode                         Dual Beam,,,,,,,,,,,,,
Baseline Correction               On,,,,,,,,,,,,,
Baseline Type                     Baseline correction,,,,,,,,,,,,,
Baseline File Name,,,,,,,,,,,,,
Baseline Std Ref File Name,,,,,,,,,,,,,
Cycle Mode                        Off,,,,,,,,,,,,,
Comments,,,,,,,,,,,,,
Method Log     :,,,,,,,,,,,,,
Method Name    : C:\DOCUMENTS AND SETTINGS\XENOPOULOS LAB\DESKTOP\CARY50 METHODS\ABSSCAN_800TO230NM.MSW,,,,,,,,,,,,,
Date/Time stamp: 11/07/2011 5:15:55 PM,,,,,,,,,,,,,
Method Modifications:,,,,,,,,,,,,,
X Stop nm Changed: 11/07/2011 5:14:48 PM,,,,,,,,,,,,,
Common Interval nm Changed: 11/07/2011 5:14:54 PM,,,,,,,,,,,,,
UVVIS SAT Changed: 11/07/2011 5:15:01 PM,,,,,,,,,,,,,
Common SAT Changed: 11/07/2011 5:15:01 PM,,,,,,,,,,,,,
Baseline Correction Changed: 11/07/2011 5:15:06 PM,,,,,,,,,,,,,
Autoconvert Changed: 11/07/2011 5:15:15 PM,,,,,,,,,,,,,
XY Table Changed: 11/07/2011 5:15:15 PM,,,,,,,,,,,,,
Y Min Abs Changed: 11/07/2011 5:15:24 PM,,,,,,,,,,,,,
Saved as C:\Documents and Settings\Xenopoulos Lab\Desktop\Cary50 Methods\AbsScan_800to230nm.MSW,,,,,,,,,,,,,
Opened C:\DOCUMENTS AND SETTINGS\XENOPOULOS LAB\DESKTOP\CARY50 METHODS\ABSSCAN_800TO230NM.MSW,,,,,,,,,,,,,
End Method Modifications,,,,,,,,,,,,,
<Current Wavelength> ,,,,,,,,,,,,,
